FILE:	201206191053.MLWM.EHE.psa
DATE:	2012-06-19 10:53
STA:	MLWM
STLA:	-37.136
STLO:	145.512
SR:	100 Hz
EQLA:	-38.279
EQLO:	146.269
EQDEP:	17.24 km
EQMAG:	5.0
RHYP:	144.5 km
PGA:	27.840 mm/s/s
PGV:	1.002 mm/s

5% Damped Pseudo Response Spectral Acceleration (PSA) claculated
using time histories filtered using a 4th order Butterworth
bandpass between 0.2-50.0 Hz

Record Processed: 2016-01-07 22:31

-----------------------------------------------------------------
Period (s)	PSA (m/s/s)
-----------------------------------------------------------------
2.00923e-02	2.95632e-02
2.15443e-02	3.14608e-02
2.31013e-02	3.81399e-02
2.47708e-02	3.73436e-02
2.65609e-02	3.76983e-02
2.84804e-02	3.80475e-02
3.05386e-02	3.85630e-02
3.27455e-02	3.72242e-02
3.51119e-02	4.60754e-02
3.76494e-02	4.57179e-02
4.03702e-02	5.19998e-02
4.32876e-02	5.52900e-02
4.64159e-02	6.22045e-02
4.97702e-02	5.20429e-02
5.33670e-02	4.30347e-02
5.72237e-02	4.90116e-02
6.13591e-02	5.74772e-02
6.57933e-02	5.47616e-02
7.05480e-02	5.40163e-02
7.56463e-02	5.76344e-02
8.11131e-02	6.64161e-02
8.69749e-02	5.77245e-02
9.32603e-02	6.22321e-02
1.00000e-01	5.15300e-02
1.07227e-01	7.01570e-02
1.14976e-01	7.30343e-02
1.23285e-01	6.26407e-02
1.32194e-01	5.75153e-02
1.41747e-01	5.71028e-02
1.51991e-01	6.27478e-02
1.62975e-01	6.21459e-02
1.74753e-01	5.23926e-02
1.87382e-01	5.70165e-02
2.00923e-01	5.45752e-02
2.15443e-01	5.57790e-02
2.31013e-01	7.14514e-02
2.47708e-01	8.18866e-02
2.65609e-01	8.77031e-02
2.84804e-01	6.93973e-02
3.05386e-01	6.01288e-02
3.27455e-01	4.94666e-02
3.51119e-01	3.97155e-02
3.76494e-01	3.76125e-02
4.03702e-01	3.19097e-02
4.32876e-01	3.18820e-02
4.64159e-01	3.94119e-02
4.97702e-01	3.92818e-02
5.33670e-01	3.08277e-02
5.72237e-01	2.26178e-02
6.13591e-01	2.04021e-02
6.57933e-01	1.80587e-02
7.05480e-01	2.00783e-02
7.56463e-01	1.67012e-02
8.11131e-01	1.49466e-02
8.69749e-01	1.46170e-02
9.32603e-01	9.58065e-03
1.00000e+00	7.67927e-03
1.07227e+00	8.06403e-03
1.14976e+00	6.10931e-03
1.23285e+00	5.19412e-03
1.32194e+00	5.01920e-03
1.41747e+00	4.58607e-03
1.51991e+00	3.68353e-03
1.62975e+00	3.31066e-03
1.74753e+00	2.79843e-03
1.87382e+00	1.95233e-03
2.00923e+00	2.05788e-03
2.15443e+00	1.35829e-03
2.31013e+00	1.06940e-03
2.47708e+00	8.05242e-04
2.65609e+00	7.11895e-04
2.84804e+00	5.40675e-04
3.05386e+00	4.71257e-04
3.27455e+00	5.21045e-04
3.51119e+00	4.60324e-04
3.76494e+00	3.51866e-04
4.03702e+00	3.13685e-04
4.32876e+00	3.01696e-04
4.64159e+00	3.33704e-04
4.97702e+00	3.10840e-04
