FILE:	201206191053.AUMHS.HHN.psa
DATE:	2012-06-19 10:53
STA:	AUMHS
STLA:	-35.3635
STLO:	149.0888
SR:	100 Hz
EQLA:	-38.24
EQLO:	146.19
EQDEP:	11.0 km
EQMAG:	5.0
RHYP:	411.0 km
AZIM:	39.9 degrees
PGA:	2.146 mm/s/s
PGV:	0.232 mm/s

5% Damped Pseudo Response Spectral Acceleration (PSA) claculated
using time histories filtered using a 4th order Butterworth
bandpass between 0.1-50.0 Hz

Record Processed: 2020-03-26 13:21

-----------------------------------------------------------------
Period (s)	PSA (m/s/s)
-----------------------------------------------------------------
2.00923e-02	2.19457e-03
2.15443e-02	2.20162e-03
2.31013e-02	2.17234e-03
2.47708e-02	2.16333e-03
2.65609e-02	2.16437e-03
2.84804e-02	2.17719e-03
3.05386e-02	2.18721e-03
3.27455e-02	2.18069e-03
3.51119e-02	2.15982e-03
3.76494e-02	2.19779e-03
4.03702e-02	2.21824e-03
4.32876e-02	2.25897e-03
4.64159e-02	2.25791e-03
4.97702e-02	2.28525e-03
5.33670e-02	2.38242e-03
5.72237e-02	2.40150e-03
6.13591e-02	2.41831e-03
6.57933e-02	2.46777e-03
7.05480e-02	2.41047e-03
7.56463e-02	2.30187e-03
8.11131e-02	2.50866e-03
8.69749e-02	2.30629e-03
9.32603e-02	2.43531e-03
1.00000e-01	2.52082e-03
1.07227e-01	2.40383e-03
1.14976e-01	2.57462e-03
1.23285e-01	2.70540e-03
1.32194e-01	2.71599e-03
1.41747e-01	2.74159e-03
1.51991e-01	3.21737e-03
1.62975e-01	2.94918e-03
1.74753e-01	2.79993e-03
1.87382e-01	3.80089e-03
2.00923e-01	3.71329e-03
2.15443e-01	3.21083e-03
2.31013e-01	4.02813e-03
2.47708e-01	4.30837e-03
2.65609e-01	4.00431e-03
2.84804e-01	4.32453e-03
3.05386e-01	5.19850e-03
3.27455e-01	5.04884e-03
3.51119e-01	6.22441e-03
3.76494e-01	5.52089e-03
4.03702e-01	5.66164e-03
4.32876e-01	5.57238e-03
4.64159e-01	4.60071e-03
4.97702e-01	5.37129e-03
5.33670e-01	4.44879e-03
5.72237e-01	4.77636e-03
6.13591e-01	5.35787e-03
6.57933e-01	4.95183e-03
7.05480e-01	4.65973e-03
7.56463e-01	4.34114e-03
8.11131e-01	3.50273e-03
8.69749e-01	3.14974e-03
9.32603e-01	3.12410e-03
1.00000e+00	3.01778e-03
1.07227e+00	2.90862e-03
1.14976e+00	2.61214e-03
1.23285e+00	2.25987e-03
1.32194e+00	2.28215e-03
1.41747e+00	1.76146e-03
1.51991e+00	1.25079e-03
1.62975e+00	1.06026e-03
1.74753e+00	1.07516e-03
1.87382e+00	1.07891e-03
2.00923e+00	1.09388e-03
2.15443e+00	9.77763e-04
2.31013e+00	8.17423e-04
2.47708e+00	7.01421e-04
2.65609e+00	5.43660e-04
2.84804e+00	3.78806e-04
3.05386e+00	2.91380e-04
3.27455e+00	2.23947e-04
3.51119e+00	1.59648e-04
3.76494e+00	1.36126e-04
4.03702e+00	1.21214e-04
4.32876e+00	1.02731e-04
4.64159e+00	8.63733e-05
4.97702e+00	7.79847e-05
5.33670e+00	7.62121e-05
5.72237e+00	6.97136e-05
6.13591e+00	5.80398e-05
6.57933e+00	4.88818e-05
7.05480e+00	4.83372e-05
7.56463e+00	5.25315e-05
8.11131e+00	4.77180e-05
8.69749e+00	4.07717e-05
9.32603e+00	3.10603e-05
1.00000e+01	2.46677e-05
