FILE:	201206191005.CDNM.EHN.psa
DATE:	2012-06-19 10:53
STA:	CDNM
STLA:	-37.946
STLO:	145.425
SR:	100 Hz
EQLA:	-38.24
EQLO:	146.19
EQDEP:	11.0 km
EQMAG:	5.0
RHYP:	75.4 km
AZIM:	295.7 degrees
PGA:	97.932 mm/s/s
PGV:	1.209 mm/s

5% Damped Pseudo Response Spectral Acceleration (PSA) claculated
using time histories filtered using a 4th order Butterworth
bandpass between 0.2-50.0 Hz

Record Processed: 2020-03-12 16:32

-----------------------------------------------------------------
Period (s)	PSA (m/s/s)
-----------------------------------------------------------------
2.00923e-02	3.79843e-01
2.15443e-02	3.28606e-01
2.31013e-02	3.45840e-01
2.47708e-02	3.51779e-01
2.65609e-02	2.98614e-01
2.84804e-02	2.45629e-01
3.05386e-02	1.79149e-01
3.27455e-02	1.97949e-01
3.51119e-02	2.09404e-01
3.76494e-02	2.04376e-01
4.03702e-02	1.80377e-01
4.32876e-02	1.79689e-01
4.64159e-02	1.65381e-01
4.97702e-02	1.83037e-01
5.33670e-02	1.77694e-01
5.72237e-02	2.04231e-01
6.13591e-02	2.41174e-01
6.57933e-02	2.07639e-01
7.05480e-02	1.74949e-01
7.56463e-02	1.46540e-01
8.11131e-02	1.30061e-01
8.69749e-02	1.25484e-01
9.32603e-02	1.10734e-01
1.00000e-01	1.22325e-01
1.07227e-01	1.12301e-01
1.14976e-01	1.06041e-01
1.23285e-01	1.13876e-01
1.32194e-01	9.40577e-02
1.41747e-01	9.43916e-02
1.51991e-01	9.57326e-02
1.62975e-01	8.93133e-02
1.74753e-01	7.59873e-02
1.87382e-01	7.51280e-02
2.00923e-01	7.01328e-02
2.15443e-01	4.81622e-02
2.31013e-01	4.78425e-02
2.47708e-01	4.07119e-02
2.65609e-01	3.31307e-02
2.84804e-01	3.19458e-02
3.05386e-01	3.83947e-02
3.27455e-01	3.76577e-02
3.51119e-01	3.31198e-02
3.76494e-01	4.27049e-02
4.03702e-01	4.32742e-02
4.32876e-01	4.35398e-02
4.64159e-01	4.56086e-02
4.97702e-01	3.74783e-02
5.33670e-01	3.21951e-02
5.72237e-01	2.81552e-02
6.13591e-01	2.41339e-02
6.57933e-01	2.28087e-02
7.05480e-01	1.85216e-02
7.56463e-01	1.45474e-02
8.11131e-01	1.15830e-02
8.69749e-01	8.58588e-03
9.32603e-01	7.00152e-03
1.00000e+00	5.89344e-03
1.07227e+00	4.94316e-03
1.14976e+00	4.31136e-03
1.23285e+00	3.56549e-03
1.32194e+00	3.23861e-03
1.41747e+00	2.98412e-03
1.51991e+00	2.25830e-03
1.62975e+00	1.95240e-03
1.74753e+00	1.88043e-03
1.87382e+00	1.73425e-03
2.00923e+00	1.52724e-03
2.15443e+00	1.25667e-03
2.31013e+00	9.86846e-04
2.47708e+00	8.27640e-04
2.65609e+00	6.95958e-04
2.84804e+00	5.83547e-04
3.05386e+00	4.99973e-04
3.27455e+00	4.07094e-04
3.51119e+00	3.27119e-04
3.76494e+00	2.79590e-04
4.03702e+00	2.55874e-04
4.32876e+00	2.35398e-04
4.64159e+00	2.06764e-04
4.97702e+00	1.74894e-04
