FILE:	201206191053.ARPS.HHE.psa
DATE:	2012-06-19 10:53
STA:	ARPS
STLA:	-36.7699
STLO:	141.8383
SR:	200 Hz
EQLA:	-38.252
EQLO:	146.234
EQDEP:	9.4 km
EQMAG:	5.0
RHYP:	421.3 km
PGA:	2.381 mm/s/s
PGV:	0.300 mm/s

5% Damped Pseudo Response Spectral Acceleration (PSA) claculated
using time histories filtered using a 4th order Butterworth
bandpass between 0.02-100.0 Hz

Record Processed: 2015-12-23 10:16

-----------------------------------------------------------------
Period (s)	PSA (m/s/s)
-----------------------------------------------------------------
1.00000e-02	2.39708e-03
1.07227e-02	2.38795e-03
1.14976e-02	2.38714e-03
1.23285e-02	2.38472e-03
1.32194e-02	2.38951e-03
1.41747e-02	2.38744e-03
1.51991e-02	2.38430e-03
1.62975e-02	2.38424e-03
1.74753e-02	2.38562e-03
1.87382e-02	2.38456e-03
2.00923e-02	2.38866e-03
2.15443e-02	2.39408e-03
2.31013e-02	2.40363e-03
2.47708e-02	2.40192e-03
2.65609e-02	2.40044e-03
2.84804e-02	2.39982e-03
3.05386e-02	2.39042e-03
3.27455e-02	2.38739e-03
3.51119e-02	2.37505e-03
3.76494e-02	2.37946e-03
4.03702e-02	2.40424e-03
4.32876e-02	2.39121e-03
4.64159e-02	2.37473e-03
4.97702e-02	2.41502e-03
5.33670e-02	2.47841e-03
5.72237e-02	2.49400e-03
6.13591e-02	2.52575e-03
6.57933e-02	2.49346e-03
7.05480e-02	2.50394e-03
7.56463e-02	2.47938e-03
8.11131e-02	2.45398e-03
8.69749e-02	2.47289e-03
9.32603e-02	2.51134e-03
1.00000e-01	2.60248e-03
1.07227e-01	2.70677e-03
1.14976e-01	3.04582e-03
1.23285e-01	3.03881e-03
1.32194e-01	2.71705e-03
1.41747e-01	2.66570e-03
1.51991e-01	3.05597e-03
1.62975e-01	3.69829e-03
1.74753e-01	3.89215e-03
1.87382e-01	4.32471e-03
2.00923e-01	4.02727e-03
2.15443e-01	3.57445e-03
2.31013e-01	3.80508e-03
2.47708e-01	3.86840e-03
2.65609e-01	5.73814e-03
2.84804e-01	6.62394e-03
3.05386e-01	7.02707e-03
3.27455e-01	6.71311e-03
3.51119e-01	7.78236e-03
3.76494e-01	6.81492e-03
4.03702e-01	6.73445e-03
4.32876e-01	7.15139e-03
4.64159e-01	7.89394e-03
4.97702e-01	9.33386e-03
5.33670e-01	1.16791e-02
5.72237e-01	1.27521e-02
6.13591e-01	1.26004e-02
6.57933e-01	7.99677e-03
7.05480e-01	5.06629e-03
7.56463e-01	4.67479e-03
8.11131e-01	4.36104e-03
8.69749e-01	3.61447e-03
9.32603e-01	4.07315e-03
1.00000e+00	3.91989e-03
1.07227e+00	3.06452e-03
1.14976e+00	2.59227e-03
1.23285e+00	2.54516e-03
1.32194e+00	2.84273e-03
1.41747e+00	2.53907e-03
1.51991e+00	2.66161e-03
1.62975e+00	2.41814e-03
1.74753e+00	2.36393e-03
1.87382e+00	2.73768e-03
2.00923e+00	2.16383e-03
2.15443e+00	1.31667e-03
2.31013e+00	1.11173e-03
2.47708e+00	9.43663e-04
2.65609e+00	1.04565e-03
2.84804e+00	9.36259e-04
3.05386e+00	8.13601e-04
3.27455e+00	7.05580e-04
3.51119e+00	5.51289e-04
3.76494e+00	3.91544e-04
4.03702e+00	3.22166e-04
4.32876e+00	2.80176e-04
4.64159e+00	2.26670e-04
4.97702e+00	2.54489e-04
5.33670e+00	2.88932e-04
5.72237e+00	2.91928e-04
6.13591e+00	2.66511e-04
6.57933e+00	2.35765e-04
7.05480e+00	2.05455e-04
7.56463e+00	1.77028e-04
8.11131e+00	1.44467e-04
8.69749e+00	1.20173e-04
9.32603e+00	1.12883e-04
1.00000e+01	1.02586e-04
