FILE:	201206191053.ROWM.EHE.psa
DATE:	2012-06-19 10:53
STA:	ROWM
STLA:	-37.806
STLO:	144.292
SR:	100 Hz
EQLA:	-38.279
EQLO:	146.269
EQDEP:	17.24 km
EQMAG:	5.0
RHYP:	181.8 km
PGA:	35.285 mm/s/s
PGV:	1.608 mm/s

5% Damped Pseudo Response Spectral Acceleration (PSA) claculated
using time histories filtered using a 4th order Butterworth
bandpass between 0.2-50.0 Hz

Record Processed: 2016-01-14 22:32

-----------------------------------------------------------------
Period (s)	PSA (m/s/s)
-----------------------------------------------------------------
2.00923e-02	3.51777e-02
2.15443e-02	3.54739e-02
2.31013e-02	3.54844e-02
2.47708e-02	3.69854e-02
2.65609e-02	4.00901e-02
2.84804e-02	3.62633e-02
3.05386e-02	3.79583e-02
3.27455e-02	3.70377e-02
3.51119e-02	3.79709e-02
3.76494e-02	4.10440e-02
4.03702e-02	3.97954e-02
4.32876e-02	3.72785e-02
4.64159e-02	4.30529e-02
4.97702e-02	4.99291e-02
5.33670e-02	4.50092e-02
5.72237e-02	3.89476e-02
6.13591e-02	5.08395e-02
6.57933e-02	5.65840e-02
7.05480e-02	5.37340e-02
7.56463e-02	5.47397e-02
8.11131e-02	5.83847e-02
8.69749e-02	5.97128e-02
9.32603e-02	5.77555e-02
1.00000e-01	6.20481e-02
1.07227e-01	7.01089e-02
1.14976e-01	6.67102e-02
1.23285e-01	7.28475e-02
1.32194e-01	6.35882e-02
1.41747e-01	5.99521e-02
1.51991e-01	6.78404e-02
1.62975e-01	7.55479e-02
1.74753e-01	8.22233e-02
1.87382e-01	6.63006e-02
2.00923e-01	5.93071e-02
2.15443e-01	6.10494e-02
2.31013e-01	6.08517e-02
2.47708e-01	6.50209e-02
2.65609e-01	5.62576e-02
2.84804e-01	4.37206e-02
3.05386e-01	5.51436e-02
3.27455e-01	5.48119e-02
3.51119e-01	5.00288e-02
3.76494e-01	3.76335e-02
4.03702e-01	3.65643e-02
4.32876e-01	4.12933e-02
4.64159e-01	4.31126e-02
4.97702e-01	3.74605e-02
5.33670e-01	4.50205e-02
5.72237e-01	5.31729e-02
6.13591e-01	5.40862e-02
6.57933e-01	4.70822e-02
7.05480e-01	4.33825e-02
7.56463e-01	3.63728e-02
8.11131e-01	3.41329e-02
8.69749e-01	3.64634e-02
9.32603e-01	3.23027e-02
1.00000e+00	2.38471e-02
1.07227e+00	1.71955e-02
1.14976e+00	1.44057e-02
1.23285e+00	1.68861e-02
1.32194e+00	1.38926e-02
1.41747e+00	1.02158e-02
1.51991e+00	7.13307e-03
1.62975e+00	5.69298e-03
1.74753e+00	4.05672e-03
1.87382e+00	3.77936e-03
2.00923e+00	3.36602e-03
2.15443e+00	2.94990e-03
2.31013e+00	3.05543e-03
2.47708e+00	3.00060e-03
2.65609e+00	2.40815e-03
2.84804e+00	2.03333e-03
3.05386e+00	1.51610e-03
3.27455e+00	1.31772e-03
3.51119e+00	1.20242e-03
3.76494e+00	1.03611e-03
4.03702e+00	8.90453e-04
4.32876e+00	7.52770e-04
4.64159e+00	6.17776e-04
4.97702e+00	4.97351e-04
