FILE:	201206191053.DROM.EHN.psa
DATE:	2012-06-19 10:53
STA:	DROM
STLA:	-38.348
STLO:	144.96
SR:	100 Hz
EQLA:	-38.279
EQLO:	146.269
EQDEP:	17.24 km
EQMAG:	5.0
RHYP:	115.8 km
PGA:	35.818 mm/s/s
PGV:	0.963 mm/s

5% Damped Pseudo Response Spectral Acceleration (PSA) claculated
using time histories filtered using a 4th order Butterworth
bandpass between 0.2-50.0 Hz

Record Processed: 2016-01-14 22:12

-----------------------------------------------------------------
Period (s)	PSA (m/s/s)
-----------------------------------------------------------------
2.00923e-02	3.94782e-02
2.15443e-02	3.93191e-02
2.31013e-02	4.01281e-02
2.47708e-02	3.92190e-02
2.65609e-02	3.85459e-02
2.84804e-02	4.13108e-02
3.05386e-02	4.10820e-02
3.27455e-02	4.36133e-02
3.51119e-02	4.69920e-02
3.76494e-02	4.60591e-02
4.03702e-02	4.51608e-02
4.32876e-02	4.82376e-02
4.64159e-02	7.65935e-02
4.97702e-02	8.57564e-02
5.33670e-02	7.92223e-02
5.72237e-02	8.93801e-02
6.13591e-02	8.23035e-02
6.57933e-02	9.19764e-02
7.05480e-02	1.03325e-01
7.56463e-02	9.97062e-02
8.11131e-02	8.03158e-02
8.69749e-02	7.03858e-02
9.32603e-02	7.79940e-02
1.00000e-01	8.47066e-02
1.07227e-01	8.17288e-02
1.14976e-01	9.02486e-02
1.23285e-01	9.23242e-02
1.32194e-01	6.60355e-02
1.41747e-01	5.41021e-02
1.51991e-01	5.10385e-02
1.62975e-01	6.36784e-02
1.74753e-01	7.59661e-02
1.87382e-01	8.67147e-02
2.00923e-01	8.76306e-02
2.15443e-01	6.88954e-02
2.31013e-01	5.14319e-02
2.47708e-01	5.36382e-02
2.65609e-01	6.80001e-02
2.84804e-01	6.92277e-02
3.05386e-01	6.99526e-02
3.27455e-01	4.55630e-02
3.51119e-01	3.11693e-02
3.76494e-01	2.31200e-02
4.03702e-01	2.05933e-02
4.32876e-01	1.97872e-02
4.64159e-01	1.73852e-02
4.97702e-01	1.73436e-02
5.33670e-01	1.93744e-02
5.72237e-01	1.65887e-02
6.13591e-01	1.35562e-02
6.57933e-01	1.40084e-02
7.05480e-01	1.39927e-02
7.56463e-01	1.06453e-02
8.11131e-01	8.61565e-03
8.69749e-01	9.01904e-03
9.32603e-01	8.66402e-03
1.00000e+00	7.11026e-03
1.07227e+00	6.94678e-03
1.14976e+00	6.27230e-03
1.23285e+00	5.37654e-03
1.32194e+00	4.55289e-03
1.41747e+00	3.52204e-03
1.51991e+00	2.57092e-03
1.62975e+00	2.39210e-03
1.74753e+00	2.51303e-03
1.87382e+00	2.34140e-03
2.00923e+00	2.11936e-03
2.15443e+00	1.66099e-03
2.31013e+00	1.49443e-03
2.47708e+00	1.26956e-03
2.65609e+00	1.02097e-03
2.84804e+00	7.84466e-04
3.05386e+00	7.37056e-04
3.27455e+00	7.70071e-04
3.51119e+00	7.73969e-04
3.76494e+00	6.05093e-04
4.03702e+00	4.89484e-04
4.32876e+00	3.65269e-04
4.64159e+00	2.91933e-04
4.97702e+00	2.37548e-04
