FILE:	201206191055.GHSS.EHE.psa
DATE:	2012-06-19 10:53
STA:	GHSS
STLA:	-34.9194
STLO:	138.6017
SR:	200 Hz
EQLA:	-38.252
EQLO:	146.234
EQDEP:	9.4 km
EQMAG:	5.0
RHYP:	775.4 km
PGA:	2.557 mm/s/s
PGV:	0.342 mm/s

5% Damped Pseudo Response Spectral Acceleration (PSA) claculated
using time histories filtered using a 4th order Butterworth
bandpass between 0.2-100.0 Hz

Record Processed: 2015-12-30 12:56

-----------------------------------------------------------------
Period (s)	PSA (m/s/s)
-----------------------------------------------------------------
1.00000e-02	2.61619e-03
1.07227e-02	2.68582e-03
1.14976e-02	2.65216e-03
1.23285e-02	2.62884e-03
1.32194e-02	2.65001e-03
1.41747e-02	2.91420e-03
1.51991e-02	2.81308e-03
1.62975e-02	2.64841e-03
1.74753e-02	2.51616e-03
1.87382e-02	2.57173e-03
2.00923e-02	2.54356e-03
2.15443e-02	2.54095e-03
2.31013e-02	2.70561e-03
2.47708e-02	2.64499e-03
2.65609e-02	2.71179e-03
2.84804e-02	2.85455e-03
3.05386e-02	2.85419e-03
3.27455e-02	2.77641e-03
3.51119e-02	2.79827e-03
3.76494e-02	2.86118e-03
4.03702e-02	2.90189e-03
4.32876e-02	2.81028e-03
4.64159e-02	2.84132e-03
4.97702e-02	3.17305e-03
5.33670e-02	3.44279e-03
5.72237e-02	3.85191e-03
6.13591e-02	4.30398e-03
6.57933e-02	4.05572e-03
7.05480e-02	3.09056e-03
7.56463e-02	3.14734e-03
8.11131e-02	3.59319e-03
8.69749e-02	2.81237e-03
9.32603e-02	2.90039e-03
1.00000e-01	2.98278e-03
1.07227e-01	2.98862e-03
1.14976e-01	3.07697e-03
1.23285e-01	2.67102e-03
1.32194e-01	2.45727e-03
1.41747e-01	2.36030e-03
1.51991e-01	2.36747e-03
1.62975e-01	2.39389e-03
1.74753e-01	2.41013e-03
1.87382e-01	2.61500e-03
2.00923e-01	2.86064e-03
2.15443e-01	2.85764e-03
2.31013e-01	2.83491e-03
2.47708e-01	2.84832e-03
2.65609e-01	3.04325e-03
2.84804e-01	3.22608e-03
3.05386e-01	4.03148e-03
3.27455e-01	4.45185e-03
3.51119e-01	4.39157e-03
3.76494e-01	3.62068e-03
4.03702e-01	3.52535e-03
4.32876e-01	3.67061e-03
4.64159e-01	3.72638e-03
4.97702e-01	3.81647e-03
5.33670e-01	3.99689e-03
5.72237e-01	3.88527e-03
6.13591e-01	4.03414e-03
6.57933e-01	5.19044e-03
7.05480e-01	5.28276e-03
7.56463e-01	7.27926e-03
8.11131e-01	8.24241e-03
8.69749e-01	1.05686e-02
9.32603e-01	1.33977e-02
1.00000e+00	1.29061e-02
1.07227e+00	9.31960e-03
1.14976e+00	6.98803e-03
1.23285e+00	5.65161e-03
1.32194e+00	4.46987e-03
1.41747e+00	3.63400e-03
1.51991e+00	3.19922e-03
1.62975e+00	2.36217e-03
1.74753e+00	1.74579e-03
1.87382e+00	1.25392e-03
2.00923e+00	1.07512e-03
2.15443e+00	9.03707e-04
2.31013e+00	7.58819e-04
2.47708e+00	6.28287e-04
2.65609e+00	6.22417e-04
2.84804e+00	5.88591e-04
3.05386e+00	5.22724e-04
3.27455e+00	4.32116e-04
3.51119e+00	3.34703e-04
3.76494e+00	2.70861e-04
4.03702e+00	2.14960e-04
4.32876e+00	1.84144e-04
4.64159e+00	1.51378e-04
4.97702e+00	1.20036e-04
