FILE:	201206191053.AUMTS.HHE.psa
DATE:	2012-06-19 10:53
STA:	AUMTS
STLA:	-35.3188
STLO:	148.9964
SR:	100 Hz
EQLA:	-38.24
EQLO:	146.19
EQDEP:	11.0 km
EQMAG:	5.0
RHYP:	409.8 km
AZIM:	38.5 degrees
PGA:	2.942 mm/s/s
PGV:	0.304 mm/s

5% Damped Pseudo Response Spectral Acceleration (PSA) claculated
using time histories filtered using a 4th order Butterworth
bandpass between 0.1-50.0 Hz

Record Processed: 2020-03-26 13:16

-----------------------------------------------------------------
Period (s)	PSA (m/s/s)
-----------------------------------------------------------------
2.00923e-02	2.94252e-03
2.15443e-02	2.94677e-03
2.31013e-02	2.95116e-03
2.47708e-02	2.95675e-03
2.65609e-02	2.96013e-03
2.84804e-02	2.95273e-03
3.05386e-02	2.94878e-03
3.27455e-02	2.94645e-03
3.51119e-02	2.93958e-03
3.76494e-02	2.95086e-03
4.03702e-02	2.91735e-03
4.32876e-02	2.97311e-03
4.64159e-02	2.97090e-03
4.97702e-02	3.00645e-03
5.33670e-02	3.08198e-03
5.72237e-02	3.10880e-03
6.13591e-02	3.08201e-03
6.57933e-02	3.10571e-03
7.05480e-02	3.26231e-03
7.56463e-02	3.43428e-03
8.11131e-02	3.39225e-03
8.69749e-02	3.54808e-03
9.32603e-02	3.85626e-03
1.00000e-01	3.74154e-03
1.07227e-01	3.61277e-03
1.14976e-01	3.90485e-03
1.23285e-01	3.89342e-03
1.32194e-01	3.65570e-03
1.41747e-01	3.34145e-03
1.51991e-01	3.59138e-03
1.62975e-01	3.50779e-03
1.74753e-01	4.42056e-03
1.87382e-01	4.36937e-03
2.00923e-01	4.55670e-03
2.15443e-01	4.83609e-03
2.31013e-01	5.15993e-03
2.47708e-01	4.99796e-03
2.65609e-01	5.11440e-03
2.84804e-01	6.08222e-03
3.05386e-01	7.38399e-03
3.27455e-01	6.04441e-03
3.51119e-01	6.53423e-03
3.76494e-01	6.60862e-03
4.03702e-01	9.20154e-03
4.32876e-01	1.12171e-02
4.64159e-01	1.06405e-02
4.97702e-01	1.23335e-02
5.33670e-01	8.87598e-03
5.72237e-01	7.84935e-03
6.13591e-01	7.06997e-03
6.57933e-01	7.99890e-03
7.05480e-01	8.38416e-03
7.56463e-01	8.66765e-03
8.11131e-01	7.82605e-03
8.69749e-01	6.84823e-03
9.32603e-01	4.99267e-03
1.00000e+00	4.47881e-03
1.07227e+00	4.04645e-03
1.14976e+00	3.58292e-03
1.23285e+00	2.72113e-03
1.32194e+00	1.75931e-03
1.41747e+00	1.47404e-03
1.51991e+00	1.42028e-03
1.62975e+00	1.21447e-03
1.74753e+00	1.05566e-03
1.87382e+00	9.07763e-04
2.00923e+00	8.60598e-04
2.15443e+00	9.23569e-04
2.31013e+00	9.74862e-04
2.47708e+00	9.29410e-04
2.65609e+00	8.60162e-04
2.84804e+00	6.64542e-04
3.05386e+00	4.52387e-04
3.27455e+00	3.50183e-04
3.51119e+00	2.73724e-04
3.76494e+00	2.39159e-04
4.03702e+00	2.02538e-04
4.32876e+00	1.77757e-04
4.64159e+00	1.61990e-04
4.97702e+00	1.49397e-04
5.33670e+00	1.22061e-04
5.72237e+00	1.00587e-04
6.13591e+00	1.03673e-04
6.57933e+00	1.10346e-04
7.05480e+00	1.04879e-04
7.56463e+00	8.40126e-05
8.11131e+00	7.23018e-05
8.69749e+00	6.71916e-05
9.32603e+00	5.54691e-05
1.00000e+01	4.14437e-05
