FILE:	201206191054.YNG.EHN.psa
DATE:	2012-06-19 10:53
STA:	YNG
STLA:	-34.298
STLO:	148.3963
SR:	200 Hz
EQLA:	-38.279
EQLO:	146.269
EQDEP:	17.24 km
EQMAG:	5.0
RHYP:	482.3 km
PGA:	2.507 mm/s/s
PGV:	0.206 mm/s

5% Damped Pseudo Response Spectral Acceleration (PSA) claculated
using time histories filtered using a 4th order Butterworth
bandpass between 0.4-100.0 Hz

Record Processed: 2016-07-05 23:45

-----------------------------------------------------------------
Period (s)	PSA (m/s/s)
-----------------------------------------------------------------
1.00000e-02	2.56825e-03
1.07227e-02	2.57577e-03
1.14976e-02	2.51683e-03
1.23285e-02	2.53138e-03
1.32194e-02	2.54650e-03
1.41747e-02	2.55485e-03
1.51991e-02	2.54947e-03
1.62975e-02	2.53655e-03
1.74753e-02	2.50431e-03
1.87382e-02	2.51358e-03
2.00923e-02	2.55311e-03
2.15443e-02	2.54371e-03
2.31013e-02	2.53363e-03
2.47708e-02	2.52456e-03
2.65609e-02	2.55206e-03
2.84804e-02	2.57051e-03
3.05386e-02	2.57646e-03
3.27455e-02	2.59108e-03
3.51119e-02	2.56896e-03
3.76494e-02	2.57020e-03
4.03702e-02	2.56137e-03
4.32876e-02	2.59020e-03
4.64159e-02	2.60694e-03
4.97702e-02	2.63230e-03
5.33670e-02	2.65633e-03
5.72237e-02	2.66797e-03
6.13591e-02	2.69886e-03
6.57933e-02	2.71670e-03
7.05480e-02	2.79235e-03
7.56463e-02	2.73982e-03
8.11131e-02	2.67700e-03
8.69749e-02	2.64667e-03
9.32603e-02	2.44700e-03
1.00000e-01	2.59360e-03
1.07227e-01	2.66335e-03
1.14976e-01	2.79538e-03
1.23285e-01	2.99310e-03
1.32194e-01	3.54884e-03
1.41747e-01	3.47043e-03
1.51991e-01	3.50605e-03
1.62975e-01	3.78145e-03
1.74753e-01	3.90078e-03
1.87382e-01	4.66491e-03
2.00923e-01	4.24219e-03
2.15443e-01	4.35782e-03
2.31013e-01	5.57208e-03
2.47708e-01	6.16636e-03
2.65609e-01	6.39761e-03
2.84804e-01	7.19335e-03
3.05386e-01	9.12265e-03
3.27455e-01	8.50115e-03
3.51119e-01	7.89846e-03
3.76494e-01	6.10081e-03
4.03702e-01	7.62638e-03
4.32876e-01	5.97404e-03
4.64159e-01	7.05162e-03
4.97702e-01	7.20051e-03
5.33670e-01	6.46033e-03
5.72237e-01	4.60114e-03
6.13591e-01	5.75202e-03
6.57933e-01	5.35402e-03
7.05480e-01	6.56943e-03
7.56463e-01	5.89649e-03
8.11131e-01	5.46593e-03
8.69749e-01	4.16755e-03
9.32603e-01	3.62851e-03
1.00000e+00	4.38218e-03
1.07227e+00	2.69871e-03
1.14976e+00	2.14106e-03
1.23285e+00	2.01179e-03
1.32194e+00	1.71263e-03
1.41747e+00	1.35699e-03
1.51991e+00	1.00572e-03
1.62975e+00	8.60010e-04
1.74753e+00	7.95917e-04
1.87382e+00	6.96305e-04
2.00923e+00	7.88055e-04
2.15443e+00	5.41776e-04
2.31013e+00	5.30460e-04
2.47708e+00	3.79702e-04
