FILE:	201206191053.TOMM.EHN.psa
DATE:	2012-06-19 10:53
STA:	TOMM
STLA:	-37.809
STLO:	146.35
SR:	100 Hz
EQLA:	-38.279
EQLO:	146.269
EQDEP:	17.24 km
EQMAG:	5.0
RHYP:	55.5 km
PGA:	523.258 mm/s/s
PGV:	6.694 mm/s

5% Damped Pseudo Response Spectral Acceleration (PSA) claculated
using time histories filtered using a 4th order Butterworth
bandpass between 0.2-50.0 Hz

Record Processed: 2016-01-14 22:17

-----------------------------------------------------------------
Period (s)	PSA (m/s/s)
-----------------------------------------------------------------
2.00923e-02	7.37236e-01
2.15443e-02	6.35319e-01
2.31013e-02	7.06841e-01
2.47708e-02	7.27005e-01
2.65609e-02	7.27407e-01
2.84804e-02	7.47255e-01
3.05386e-02	9.74339e-01
3.27455e-02	1.06728e+00
3.51119e-02	1.05635e+00
3.76494e-02	1.13008e+00
4.03702e-02	1.13011e+00
4.32876e-02	1.16916e+00
4.64159e-02	1.18395e+00
4.97702e-02	1.15546e+00
5.33670e-02	1.05275e+00
5.72237e-02	1.32337e+00
6.13591e-02	1.49379e+00
6.57933e-02	1.52261e+00
7.05480e-02	1.27654e+00
7.56463e-02	1.43620e+00
8.11131e-02	1.82264e+00
8.69749e-02	2.07414e+00
9.32603e-02	1.64902e+00
1.00000e-01	1.20050e+00
1.07227e-01	7.95783e-01
1.14976e-01	6.87969e-01
1.23285e-01	5.89953e-01
1.32194e-01	5.65993e-01
1.41747e-01	6.54304e-01
1.51991e-01	9.18393e-01
1.62975e-01	8.97967e-01
1.74753e-01	5.48189e-01
1.87382e-01	3.89821e-01
2.00923e-01	3.77204e-01
2.15443e-01	3.31144e-01
2.31013e-01	3.09508e-01
2.47708e-01	2.82698e-01
2.65609e-01	2.49866e-01
2.84804e-01	2.45741e-01
3.05386e-01	2.27603e-01
3.27455e-01	1.84830e-01
3.51119e-01	1.60726e-01
3.76494e-01	1.68468e-01
4.03702e-01	1.70284e-01
4.32876e-01	1.64080e-01
4.64159e-01	1.49235e-01
4.97702e-01	1.37146e-01
5.33670e-01	1.13770e-01
5.72237e-01	9.12048e-02
6.13591e-01	7.92943e-02
6.57933e-01	7.03390e-02
7.05480e-01	6.89365e-02
7.56463e-01	6.65640e-02
8.11131e-01	5.35382e-02
8.69749e-01	3.87336e-02
9.32603e-01	3.23743e-02
1.00000e+00	2.73546e-02
1.07227e+00	2.17682e-02
1.14976e+00	1.70478e-02
1.23285e+00	1.50686e-02
1.32194e+00	1.27300e-02
1.41747e+00	1.08978e-02
1.51991e+00	9.60595e-03
1.62975e+00	7.51933e-03
1.74753e+00	6.20946e-03
1.87382e+00	5.54054e-03
2.00923e+00	4.55908e-03
2.15443e+00	3.56957e-03
2.31013e+00	2.65516e-03
2.47708e+00	2.36794e-03
2.65609e+00	2.40768e-03
2.84804e+00	2.27533e-03
3.05386e+00	1.96745e-03
3.27455e+00	1.57830e-03
3.51119e+00	1.26539e-03
3.76494e+00	1.07194e-03
4.03702e+00	9.66735e-04
4.32876e+00	8.33886e-04
4.64159e+00	7.01600e-04
4.97702e+00	5.84706e-04
