FILE:	201206191054.TWOA.EHN.psa
DATE:	2012-06-19 10:53
STA:	TWOA
STLA:	-35.0313
STLO:	138.5793
SR:	200 Hz
EQLA:	-38.252
EQLO:	146.234
EQDEP:	9.4 km
EQMAG:	5.0
RHYP:	770.8 km
PGA:	0.685 mm/s/s
PGV:	0.120 mm/s

5% Damped Pseudo Response Spectral Acceleration (PSA) claculated
using time histories filtered using a 4th order Butterworth
bandpass between 0.2-100.0 Hz

Record Processed: 2015-12-30 12:52

-----------------------------------------------------------------
Period (s)	PSA (m/s/s)
-----------------------------------------------------------------
1.00000e-02	6.91576e-04
1.07227e-02	6.95232e-04
1.14976e-02	6.91875e-04
1.23285e-02	6.82426e-04
1.32194e-02	6.80293e-04
1.41747e-02	6.88269e-04
1.51991e-02	7.04301e-04
1.62975e-02	7.00819e-04
1.74753e-02	6.81705e-04
1.87382e-02	6.82236e-04
2.00923e-02	6.84381e-04
2.15443e-02	6.85181e-04
2.31013e-02	6.84394e-04
2.47708e-02	6.77910e-04
2.65609e-02	6.80428e-04
2.84804e-02	6.82469e-04
3.05386e-02	6.77604e-04
3.27455e-02	6.80540e-04
3.51119e-02	6.82201e-04
3.76494e-02	6.80869e-04
4.03702e-02	6.80703e-04
4.32876e-02	6.83676e-04
4.64159e-02	6.84996e-04
4.97702e-02	6.82158e-04
5.33670e-02	6.85302e-04
5.72237e-02	6.84358e-04
6.13591e-02	6.89641e-04
6.57933e-02	6.86655e-04
7.05480e-02	6.76960e-04
7.56463e-02	6.85608e-04
8.11131e-02	6.93906e-04
8.69749e-02	6.89250e-04
9.32603e-02	6.84270e-04
1.00000e-01	6.92659e-04
1.07227e-01	7.01956e-04
1.14976e-01	7.19254e-04
1.23285e-01	7.24108e-04
1.32194e-01	7.34166e-04
1.41747e-01	7.28842e-04
1.51991e-01	7.67629e-04
1.62975e-01	8.06708e-04
1.74753e-01	7.97265e-04
1.87382e-01	7.97877e-04
2.00923e-01	8.23960e-04
2.15443e-01	8.32764e-04
2.31013e-01	7.80323e-04
2.47708e-01	7.93805e-04
2.65609e-01	8.28108e-04
2.84804e-01	8.61069e-04
3.05386e-01	9.20824e-04
3.27455e-01	9.28271e-04
3.51119e-01	9.26465e-04
3.76494e-01	1.02628e-03
4.03702e-01	1.21445e-03
4.32876e-01	1.61364e-03
4.64159e-01	1.58132e-03
4.97702e-01	1.83774e-03
5.33670e-01	1.88857e-03
5.72237e-01	1.93039e-03
6.13591e-01	1.84586e-03
6.57933e-01	2.55367e-03
7.05480e-01	2.94814e-03
7.56463e-01	2.80028e-03
8.11131e-01	2.38551e-03
8.69749e-01	2.68025e-03
9.32603e-01	3.09581e-03
1.00000e+00	1.90364e-03
1.07227e+00	1.45556e-03
1.14976e+00	1.27173e-03
1.23285e+00	8.93820e-04
1.32194e+00	1.12715e-03
1.41747e+00	1.11294e-03
1.51991e+00	9.43175e-04
1.62975e+00	7.13922e-04
1.74753e+00	6.18287e-04
1.87382e+00	7.63437e-04
2.00923e+00	6.07170e-04
2.15443e+00	4.78296e-04
2.31013e+00	4.97128e-04
2.47708e+00	4.06903e-04
2.65609e+00	2.73916e-04
2.84804e+00	2.94845e-04
3.05386e+00	3.91231e-04
3.27455e+00	4.32377e-04
3.51119e+00	3.71111e-04
3.76494e+00	2.75049e-04
4.03702e+00	1.91715e-04
4.32876e+00	1.26882e-04
4.64159e+00	9.03259e-05
4.97702e+00	7.34192e-05
