FILE:	201206191052.GLAD.EHN.psa
DATE:	2012-06-19 10:53
STA:	GLAD
STLA:	-40.98444
STLO:	148.00861
SR:	200 Hz
EQLA:	-38.252
EQLO:	146.234
EQDEP:	9.4 km
EQMAG:	5.0
RHYP:	339.8 km
PGA:	3.021 mm/s/s
PGV:	0.238 mm/s

5% Damped Pseudo Response Spectral Acceleration (PSA) claculated
using time histories filtered using a 4th order Butterworth
bandpass between 0.2-100.0 Hz

Record Processed: 2015-12-30 12:46

-----------------------------------------------------------------
Period (s)	PSA (m/s/s)
-----------------------------------------------------------------
1.00000e-02	3.04280e-03
1.07227e-02	3.02931e-03
1.14976e-02	3.03166e-03
1.23285e-02	3.04361e-03
1.32194e-02	3.02391e-03
1.41747e-02	3.05201e-03
1.51991e-02	3.10048e-03
1.62975e-02	3.10299e-03
1.74753e-02	3.04644e-03
1.87382e-02	3.01118e-03
2.00923e-02	3.05005e-03
2.15443e-02	3.09239e-03
2.31013e-02	3.15662e-03
2.47708e-02	3.19417e-03
2.65609e-02	3.08435e-03
2.84804e-02	3.19940e-03
3.05386e-02	3.13048e-03
3.27455e-02	3.11191e-03
3.51119e-02	3.15089e-03
3.76494e-02	3.27967e-03
4.03702e-02	3.20111e-03
4.32876e-02	3.42829e-03
4.64159e-02	3.38041e-03
4.97702e-02	3.30419e-03
5.33670e-02	3.50064e-03
5.72237e-02	3.83104e-03
6.13591e-02	3.82245e-03
6.57933e-02	4.32042e-03
7.05480e-02	4.19399e-03
7.56463e-02	3.31768e-03
8.11131e-02	3.67245e-03
8.69749e-02	4.32399e-03
9.32603e-02	4.55291e-03
1.00000e-01	4.42626e-03
1.07227e-01	4.74152e-03
1.14976e-01	4.42327e-03
1.23285e-01	4.01533e-03
1.32194e-01	4.28644e-03
1.41747e-01	5.57246e-03
1.51991e-01	6.46989e-03
1.62975e-01	5.47670e-03
1.74753e-01	5.49382e-03
1.87382e-01	7.34171e-03
2.00923e-01	6.67929e-03
2.15443e-01	5.38979e-03
2.31013e-01	6.39590e-03
2.47708e-01	5.14586e-03
2.65609e-01	5.37993e-03
2.84804e-01	6.00171e-03
3.05386e-01	5.83627e-03
3.27455e-01	4.71344e-03
3.51119e-01	5.16860e-03
3.76494e-01	4.75312e-03
4.03702e-01	4.06855e-03
4.32876e-01	4.65749e-03
4.64159e-01	5.55695e-03
4.97702e-01	5.93843e-03
5.33670e-01	6.26822e-03
5.72237e-01	7.47486e-03
6.13591e-01	8.78489e-03
6.57933e-01	6.76540e-03
7.05480e-01	4.90848e-03
7.56463e-01	5.59438e-03
8.11131e-01	4.88481e-03
8.69749e-01	4.23766e-03
9.32603e-01	3.32343e-03
1.00000e+00	2.87985e-03
1.07227e+00	2.70748e-03
1.14976e+00	2.25632e-03
1.23285e+00	1.69755e-03
1.32194e+00	1.81147e-03
1.41747e+00	1.57605e-03
1.51991e+00	1.16652e-03
1.62975e+00	9.30475e-04
1.74753e+00	7.65604e-04
1.87382e+00	5.87530e-04
2.00923e+00	5.44394e-04
2.15443e+00	5.10528e-04
2.31013e+00	4.37743e-04
2.47708e+00	4.31798e-04
2.65609e+00	4.72001e-04
2.84804e+00	4.65071e-04
3.05386e+00	3.86872e-04
3.27455e+00	2.85380e-04
3.51119e+00	2.56789e-04
3.76494e+00	1.99637e-04
4.03702e+00	1.57280e-04
4.32876e+00	1.22789e-04
4.64159e+00	9.44875e-05
4.97702e+00	7.08590e-05
