FILE:	201206191053.DROM.EHE.psa
DATE:	2012-06-19 10:53
STA:	DROM
STLA:	-38.348
STLO:	144.96
SR:	100 Hz
EQLA:	-38.279
EQLO:	146.269
EQDEP:	17.24 km
EQMAG:	5.0
RHYP:	115.8 km
PGA:	33.984 mm/s/s
PGV:	0.969 mm/s

5% Damped Pseudo Response Spectral Acceleration (PSA) claculated
using time histories filtered using a 4th order Butterworth
bandpass between 0.2-50.0 Hz

Record Processed: 2016-01-14 22:12

-----------------------------------------------------------------
Period (s)	PSA (m/s/s)
-----------------------------------------------------------------
2.00923e-02	3.55968e-02
2.15443e-02	3.75803e-02
2.31013e-02	4.05133e-02
2.47708e-02	4.11367e-02
2.65609e-02	4.26666e-02
2.84804e-02	4.65853e-02
3.05386e-02	4.80358e-02
3.27455e-02	5.06027e-02
3.51119e-02	6.07682e-02
3.76494e-02	6.82565e-02
4.03702e-02	6.13104e-02
4.32876e-02	6.34604e-02
4.64159e-02	7.58149e-02
4.97702e-02	1.05525e-01
5.33670e-02	1.50941e-01
5.72237e-02	1.20588e-01
6.13591e-02	1.36406e-01
6.57933e-02	1.41980e-01
7.05480e-02	1.57284e-01
7.56463e-02	1.44895e-01
8.11131e-02	1.17617e-01
8.69749e-02	1.05619e-01
9.32603e-02	9.88120e-02
1.00000e-01	7.57795e-02
1.07227e-01	8.54106e-02
1.14976e-01	1.00670e-01
1.23285e-01	1.06506e-01
1.32194e-01	8.76552e-02
1.41747e-01	6.22848e-02
1.51991e-01	7.06897e-02
1.62975e-01	7.33048e-02
1.74753e-01	6.31406e-02
1.87382e-01	4.35472e-02
2.00923e-01	4.20028e-02
2.15443e-01	4.71785e-02
2.31013e-01	4.51252e-02
2.47708e-01	4.78986e-02
2.65609e-01	4.41690e-02
2.84804e-01	4.16584e-02
3.05386e-01	3.52452e-02
3.27455e-01	3.38565e-02
3.51119e-01	3.26255e-02
3.76494e-01	2.34260e-02
4.03702e-01	2.12535e-02
4.32876e-01	2.15387e-02
4.64159e-01	1.72367e-02
4.97702e-01	1.71809e-02
5.33670e-01	1.59815e-02
5.72237e-01	1.75622e-02
6.13591e-01	2.08788e-02
6.57933e-01	1.98975e-02
7.05480e-01	1.98652e-02
7.56463e-01	1.66928e-02
8.11131e-01	1.38919e-02
8.69749e-01	9.62281e-03
9.32603e-01	7.85496e-03
1.00000e+00	9.84720e-03
1.07227e+00	8.31351e-03
1.14976e+00	5.48884e-03
1.23285e+00	4.42001e-03
1.32194e+00	3.50164e-03
1.41747e+00	2.42840e-03
1.51991e+00	2.11928e-03
1.62975e+00	2.20411e-03
1.74753e+00	1.93834e-03
1.87382e+00	1.60317e-03
2.00923e+00	1.33320e-03
2.15443e+00	1.33807e-03
2.31013e+00	1.28593e-03
2.47708e+00	1.10863e-03
2.65609e+00	1.00682e-03
2.84804e+00	8.58523e-04
3.05386e+00	7.72185e-04
3.27455e+00	6.27431e-04
3.51119e+00	5.12645e-04
3.76494e+00	4.61835e-04
4.03702e+00	4.08067e-04
4.32876e+00	3.67508e-04
4.64159e+00	3.07103e-04
4.97702e+00	2.49621e-04
