FILE:	201206191052.TWOA.EHE.psa
DATE:	2012-06-19 10:53
STA:	TWOA
STLA:	-35.0313
STLO:	138.5793
SR:	200 Hz
EQLA:	-38.252
EQLO:	146.234
EQDEP:	9.4 km
EQMAG:	5.0
RHYP:	770.8 km
PGA:	0.437 mm/s/s
PGV:	0.066 mm/s

5% Damped Pseudo Response Spectral Acceleration (PSA) claculated
using time histories filtered using a 4th order Butterworth
bandpass between 0.2-100.0 Hz

Record Processed: 2015-12-30 12:53

-----------------------------------------------------------------
Period (s)	PSA (m/s/s)
-----------------------------------------------------------------
1.00000e-02	4.38435e-04
1.07227e-02	4.39076e-04
1.14976e-02	4.46561e-04
1.23285e-02	4.47231e-04
1.32194e-02	4.45155e-04
1.41747e-02	4.42034e-04
1.51991e-02	4.33192e-04
1.62975e-02	4.48257e-04
1.74753e-02	4.60374e-04
1.87382e-02	4.47853e-04
2.00923e-02	4.43354e-04
2.15443e-02	4.37082e-04
2.31013e-02	4.38507e-04
2.47708e-02	4.39380e-04
2.65609e-02	4.40903e-04
2.84804e-02	4.40671e-04
3.05386e-02	4.39408e-04
3.27455e-02	4.36328e-04
3.51119e-02	4.38197e-04
3.76494e-02	4.35044e-04
4.03702e-02	4.36896e-04
4.32876e-02	4.33394e-04
4.64159e-02	4.37514e-04
4.97702e-02	4.38643e-04
5.33670e-02	4.37314e-04
5.72237e-02	4.31152e-04
6.13591e-02	4.33794e-04
6.57933e-02	4.35341e-04
7.05480e-02	4.35873e-04
7.56463e-02	4.42387e-04
8.11131e-02	4.36857e-04
8.69749e-02	4.37239e-04
9.32603e-02	4.64187e-04
1.00000e-01	4.71842e-04
1.07227e-01	4.59375e-04
1.14976e-01	4.44400e-04
1.23285e-01	4.54942e-04
1.32194e-01	4.55835e-04
1.41747e-01	4.68574e-04
1.51991e-01	5.01899e-04
1.62975e-01	5.00203e-04
1.74753e-01	4.91790e-04
1.87382e-01	5.11264e-04
2.00923e-01	5.68561e-04
2.15443e-01	6.35745e-04
2.31013e-01	6.41116e-04
2.47708e-01	6.72602e-04
2.65609e-01	6.77350e-04
2.84804e-01	7.86468e-04
3.05386e-01	8.26086e-04
3.27455e-01	7.96208e-04
3.51119e-01	8.86386e-04
3.76494e-01	1.07738e-03
4.03702e-01	1.14677e-03
4.32876e-01	1.18209e-03
4.64159e-01	1.19390e-03
4.97702e-01	1.08818e-03
5.33670e-01	1.27465e-03
5.72237e-01	1.38880e-03
6.13591e-01	1.38836e-03
6.57933e-01	1.38556e-03
7.05480e-01	1.58094e-03
7.56463e-01	1.48315e-03
8.11131e-01	1.53554e-03
8.69749e-01	1.88151e-03
9.32603e-01	1.49775e-03
1.00000e+00	1.10146e-03
1.07227e+00	1.09100e-03
1.14976e+00	9.42853e-04
1.23285e+00	7.14696e-04
1.32194e+00	8.45633e-04
1.41747e+00	9.12850e-04
1.51991e+00	8.22562e-04
1.62975e+00	7.13651e-04
1.74753e+00	5.66636e-04
1.87382e+00	4.29474e-04
2.00923e+00	3.40648e-04
2.15443e+00	3.07762e-04
2.31013e+00	2.96935e-04
2.47708e+00	3.41343e-04
2.65609e+00	3.75664e-04
2.84804e+00	3.05155e-04
3.05386e+00	2.75915e-04
3.27455e+00	2.22931e-04
3.51119e+00	2.01419e-04
3.76494e+00	1.82492e-04
4.03702e+00	1.36862e-04
4.32876e+00	1.04998e-04
4.64159e+00	8.06743e-05
4.97702e+00	6.55728e-05
