FILE:	201206191053.TOMM.EHE.psa
DATE:	2012-06-19 10:53
STA:	TOMM
STLA:	-37.809
STLO:	146.35
SR:	100 Hz
EQLA:	-38.279
EQLO:	146.269
EQDEP:	17.24 km
EQMAG:	5.0
RHYP:	55.5 km
PGA:	642.214 mm/s/s
PGV:	8.437 mm/s

5% Damped Pseudo Response Spectral Acceleration (PSA) claculated
using time histories filtered using a 4th order Butterworth
bandpass between 0.2-50.0 Hz

Record Processed: 2016-01-14 22:17

-----------------------------------------------------------------
Period (s)	PSA (m/s/s)
-----------------------------------------------------------------
2.00923e-02	8.42111e-01
2.15443e-02	9.31317e-01
2.31013e-02	8.18817e-01
2.47708e-02	7.67386e-01
2.65609e-02	9.10394e-01
2.84804e-02	1.01231e+00
3.05386e-02	1.10588e+00
3.27455e-02	1.40515e+00
3.51119e-02	1.54220e+00
3.76494e-02	1.89283e+00
4.03702e-02	2.54319e+00
4.32876e-02	2.62741e+00
4.64159e-02	1.68081e+00
4.97702e-02	1.20867e+00
5.33670e-02	1.03982e+00
5.72237e-02	1.19534e+00
6.13591e-02	1.58790e+00
6.57933e-02	1.35583e+00
7.05480e-02	1.19960e+00
7.56463e-02	1.09424e+00
8.11131e-02	1.14568e+00
8.69749e-02	9.80738e-01
9.32603e-02	7.57761e-01
1.00000e-01	8.54041e-01
1.07227e-01	9.68732e-01
1.14976e-01	9.83426e-01
1.23285e-01	1.07140e+00
1.32194e-01	9.23768e-01
1.41747e-01	8.65634e-01
1.51991e-01	9.75267e-01
1.62975e-01	1.17259e+00
1.74753e-01	1.05736e+00
1.87382e-01	8.75351e-01
2.00923e-01	6.40258e-01
2.15443e-01	5.21318e-01
2.31013e-01	4.71858e-01
2.47708e-01	4.37325e-01
2.65609e-01	4.16598e-01
2.84804e-01	3.75400e-01
3.05386e-01	3.13828e-01
3.27455e-01	2.58769e-01
3.51119e-01	1.81444e-01
3.76494e-01	1.66422e-01
4.03702e-01	1.54854e-01
4.32876e-01	1.23522e-01
4.64159e-01	1.00809e-01
4.97702e-01	8.24807e-02
5.33670e-01	8.82027e-02
5.72237e-01	9.10854e-02
6.13591e-01	7.92821e-02
6.57933e-01	6.26955e-02
7.05480e-01	5.18181e-02
7.56463e-01	4.40260e-02
8.11131e-01	4.10402e-02
8.69749e-01	3.72137e-02
9.32603e-01	3.35412e-02
1.00000e+00	3.18992e-02
1.07227e+00	2.41068e-02
1.14976e+00	1.97725e-02
1.23285e+00	1.73945e-02
1.32194e+00	1.45930e-02
1.41747e+00	1.18488e-02
1.51991e+00	9.42076e-03
1.62975e+00	8.36798e-03
1.74753e+00	7.00821e-03
1.87382e+00	5.81927e-03
2.00923e+00	4.99335e-03
2.15443e+00	4.27497e-03
2.31013e+00	3.63166e-03
2.47708e+00	3.06553e-03
2.65609e+00	2.59803e-03
2.84804e+00	2.21978e-03
3.05386e+00	1.90893e-03
3.27455e+00	1.64356e-03
3.51119e+00	1.41124e-03
3.76494e+00	1.19856e-03
4.03702e+00	1.01380e-03
4.32876e+00	8.53604e-04
4.64159e+00	7.62229e-04
4.97702e+00	6.76382e-04
