FILE:	201206191005.ARPS.HHE.psa
DATE:	2012-06-19 10:53
STA:	ARPS
STLA:	-36.7699
STLO:	141.8383
SR:	200 Hz
EQLA:	-38.279
EQLO:	146.269
EQDEP:	17.2 km
EQMAG:	5.0
RHYP:	426.3 km
AZIM:	291.8 degrees
PGA:	0.931 mm/s/s
PGV:	0.117 mm/s

5% Damped Pseudo Response Spectral Acceleration (PSA) claculated
using time histories filtered using a 4th order Butterworth
bandpass between 0.1-100.0 Hz

Record Processed: 2020-10-13 21:32

-----------------------------------------------------------------
Period (s)	PSA (m/s/s)
-----------------------------------------------------------------
1.00000e-02	9.36947e-04
1.07227e-02	9.33379e-04
1.14976e-02	9.33061e-04
1.23285e-02	9.32115e-04
1.32194e-02	9.33986e-04
1.41747e-02	9.33177e-04
1.51991e-02	9.31950e-04
1.62975e-02	9.31927e-04
1.74753e-02	9.32464e-04
1.87382e-02	9.32053e-04
2.00923e-02	9.33657e-04
2.15443e-02	9.35773e-04
2.31013e-02	9.39509e-04
2.47708e-02	9.38839e-04
2.65609e-02	9.38264e-04
2.84804e-02	9.38022e-04
3.05386e-02	9.34344e-04
3.27455e-02	9.33159e-04
3.51119e-02	9.28336e-04
3.76494e-02	9.30053e-04
4.03702e-02	9.39746e-04
4.32876e-02	9.34652e-04
4.64159e-02	9.28208e-04
4.97702e-02	9.43959e-04
5.33670e-02	9.68749e-04
5.72237e-02	9.74848e-04
6.13591e-02	9.87269e-04
6.57933e-02	9.74643e-04
7.05480e-02	9.78739e-04
7.56463e-02	9.69139e-04
8.11131e-02	9.59207e-04
8.69749e-02	9.67537e-04
9.32603e-02	9.81621e-04
1.00000e-01	1.01727e-03
1.07227e-01	1.05805e-03
1.14976e-01	1.19066e-03
1.23285e-01	1.18837e-03
1.32194e-01	1.06254e-03
1.41747e-01	1.04199e-03
1.51991e-01	1.19462e-03
1.62975e-01	1.44582e-03
1.74753e-01	1.52165e-03
1.87382e-01	1.69082e-03
2.00923e-01	1.57450e-03
2.15443e-01	1.39850e-03
2.31013e-01	1.48869e-03
2.47708e-01	1.51240e-03
2.65609e-01	2.24461e-03
2.84804e-01	2.58997e-03
3.05386e-01	2.74762e-03
3.27455e-01	2.62460e-03
3.51119e-01	3.04405e-03
3.76494e-01	2.66570e-03
4.03702e-01	2.63353e-03
4.32876e-01	2.79674e-03
4.64159e-01	3.08735e-03
4.97702e-01	3.65071e-03
5.33670e-01	4.56810e-03
5.72237e-01	4.98773e-03
6.13591e-01	4.92724e-03
6.57933e-01	3.12683e-03
7.05480e-01	1.98077e-03
7.56463e-01	1.82984e-03
8.11131e-01	1.70717e-03
8.69749e-01	1.41318e-03
9.32603e-01	1.59342e-03
1.00000e+00	1.53330e-03
1.07227e+00	1.19811e-03
1.14976e+00	1.01341e-03
1.23285e+00	9.94994e-04
1.32194e+00	1.11139e-03
1.41747e+00	9.93464e-04
1.51991e+00	1.04062e-03
1.62975e+00	9.45327e-04
1.74753e+00	9.24195e-04
1.87382e+00	1.07113e-03
2.00923e+00	8.46683e-04
2.15443e+00	5.14990e-04
2.31013e+00	4.34975e-04
2.47708e+00	3.69228e-04
2.65609e+00	4.08927e-04
2.84804e+00	3.66563e-04
3.05386e+00	3.18174e-04
3.27455e+00	2.75331e-04
3.51119e+00	2.14986e-04
3.76494e+00	1.52511e-04
4.03702e+00	1.22974e-04
4.32876e+00	1.06254e-04
4.64159e+00	8.96069e-05
4.97702e+00	1.01075e-04
5.33670e+00	1.12928e-04
5.72237e+00	1.11624e-04
6.13591e+00	1.01167e-04
6.57933e+00	8.88723e-05
7.05480e+00	7.57129e-05
7.56463e+00	6.38916e-05
8.11131e+00	5.04728e-05
8.69749e+00	4.15061e-05
9.32603e+00	3.83240e-05
1.00000e+01	3.28825e-05
