FILE:	201206191053.AUMHS.HHE.psa
DATE:	2012-06-19 10:53
STA:	AUMHS
STLA:	-35.3635
STLO:	149.0888
SR:	100 Hz
EQLA:	-38.24
EQLO:	146.19
EQDEP:	11.0 km
EQMAG:	5.0
RHYP:	411.0 km
AZIM:	39.9 degrees
PGA:	2.746 mm/s/s
PGV:	0.366 mm/s

5% Damped Pseudo Response Spectral Acceleration (PSA) claculated
using time histories filtered using a 4th order Butterworth
bandpass between 0.1-50.0 Hz

Record Processed: 2020-03-26 13:23

-----------------------------------------------------------------
Period (s)	PSA (m/s/s)
-----------------------------------------------------------------
2.00923e-02	2.78637e-03
2.15443e-02	2.77752e-03
2.31013e-02	2.76592e-03
2.47708e-02	2.77372e-03
2.65609e-02	2.78197e-03
2.84804e-02	2.80512e-03
3.05386e-02	2.82269e-03
3.27455e-02	2.85687e-03
3.51119e-02	2.86179e-03
3.76494e-02	2.88032e-03
4.03702e-02	2.88977e-03
4.32876e-02	2.89395e-03
4.64159e-02	2.95798e-03
4.97702e-02	2.88978e-03
5.33670e-02	2.97501e-03
5.72237e-02	2.99141e-03
6.13591e-02	3.01899e-03
6.57933e-02	2.97044e-03
7.05480e-02	3.18893e-03
7.56463e-02	3.23270e-03
8.11131e-02	2.99151e-03
8.69749e-02	3.02961e-03
9.32603e-02	3.16782e-03
1.00000e-01	3.11784e-03
1.07227e-01	3.06534e-03
1.14976e-01	3.30860e-03
1.23285e-01	3.87430e-03
1.32194e-01	3.72365e-03
1.41747e-01	4.52366e-03
1.51991e-01	4.58447e-03
1.62975e-01	4.09522e-03
1.74753e-01	3.81566e-03
1.87382e-01	3.99888e-03
2.00923e-01	4.92602e-03
2.15443e-01	4.56640e-03
2.31013e-01	4.04443e-03
2.47708e-01	4.89854e-03
2.65609e-01	5.07610e-03
2.84804e-01	5.41861e-03
3.05386e-01	5.70014e-03
3.27455e-01	4.86648e-03
3.51119e-01	5.26272e-03
3.76494e-01	5.37071e-03
4.03702e-01	5.68476e-03
4.32876e-01	5.45170e-03
4.64159e-01	5.76565e-03
4.97702e-01	7.18760e-03
5.33670e-01	8.38591e-03
5.72237e-01	9.27202e-03
6.13591e-01	1.01711e-02
6.57933e-01	1.06624e-02
7.05480e-01	9.43223e-03
7.56463e-01	7.16247e-03
8.11131e-01	6.15582e-03
8.69749e-01	4.78581e-03
9.32603e-01	3.71879e-03
1.00000e+00	3.42576e-03
1.07227e+00	3.51467e-03
1.14976e+00	3.28794e-03
1.23285e+00	3.14739e-03
1.32194e+00	3.08247e-03
1.41747e+00	2.50617e-03
1.51991e+00	2.26733e-03
1.62975e+00	1.94825e-03
1.74753e+00	1.65813e-03
1.87382e+00	1.47078e-03
2.00923e+00	1.52998e-03
2.15443e+00	1.22093e-03
2.31013e+00	1.03337e-03
2.47708e+00	8.85556e-04
2.65609e+00	6.34275e-04
2.84804e+00	5.15389e-04
3.05386e+00	4.07237e-04
3.27455e+00	3.19438e-04
3.51119e+00	2.70265e-04
3.76494e+00	2.19009e-04
4.03702e+00	2.12589e-04
4.32876e+00	2.10689e-04
4.64159e+00	2.02206e-04
4.97702e+00	1.78616e-04
5.33670e+00	1.54203e-04
5.72237e+00	1.23393e-04
6.13591e+00	9.29807e-05
6.57933e+00	1.08170e-04
7.05480e+00	1.01639e-04
7.56463e+00	8.54764e-05
8.11131e+00	7.92808e-05
8.69749e+00	6.91486e-05
9.32603e+00	5.43721e-05
1.00000e+01	4.12085e-05
