FILE:	201206191053.AUMTS.HHN.psa
DATE:	2012-06-19 10:53
STA:	AUMTS
STLA:	-35.3188
STLO:	148.9964
SR:	100 Hz
EQLA:	-38.24
EQLO:	146.19
EQDEP:	11.0 km
EQMAG:	5.0
RHYP:	409.8 km
AZIM:	38.5 degrees
PGA:	2.817 mm/s/s
PGV:	0.249 mm/s

5% Damped Pseudo Response Spectral Acceleration (PSA) claculated
using time histories filtered using a 4th order Butterworth
bandpass between 0.1-50.0 Hz

Record Processed: 2020-03-26 13:15

-----------------------------------------------------------------
Period (s)	PSA (m/s/s)
-----------------------------------------------------------------
2.00923e-02	2.82055e-03
2.15443e-02	2.81469e-03
2.31013e-02	2.81709e-03
2.47708e-02	2.82275e-03
2.65609e-02	2.82591e-03
2.84804e-02	2.83451e-03
3.05386e-02	2.84487e-03
3.27455e-02	2.83508e-03
3.51119e-02	2.83931e-03
3.76494e-02	2.83332e-03
4.03702e-02	2.83335e-03
4.32876e-02	2.89667e-03
4.64159e-02	2.95738e-03
4.97702e-02	2.92699e-03
5.33670e-02	2.94182e-03
5.72237e-02	2.93877e-03
6.13591e-02	2.88566e-03
6.57933e-02	2.83057e-03
7.05480e-02	2.94747e-03
7.56463e-02	3.07722e-03
8.11131e-02	3.15071e-03
8.69749e-02	3.51738e-03
9.32603e-02	3.38971e-03
1.00000e-01	3.18394e-03
1.07227e-01	3.04001e-03
1.14976e-01	3.05137e-03
1.23285e-01	3.35650e-03
1.32194e-01	3.23679e-03
1.41747e-01	3.06243e-03
1.51991e-01	3.90708e-03
1.62975e-01	4.08458e-03
1.74753e-01	3.68761e-03
1.87382e-01	4.38746e-03
2.00923e-01	5.17114e-03
2.15443e-01	4.89313e-03
2.31013e-01	6.11493e-03
2.47708e-01	7.47995e-03
2.65609e-01	7.19735e-03
2.84804e-01	6.33131e-03
3.05386e-01	6.45541e-03
3.27455e-01	5.64898e-03
3.51119e-01	6.43094e-03
3.76494e-01	6.00021e-03
4.03702e-01	5.96437e-03
4.32876e-01	5.69166e-03
4.64159e-01	6.29942e-03
4.97702e-01	7.25229e-03
5.33670e-01	9.92416e-03
5.72237e-01	1.08216e-02
6.13591e-01	7.33251e-03
6.57933e-01	6.54249e-03
7.05480e-01	5.58931e-03
7.56463e-01	7.20062e-03
8.11131e-01	7.12225e-03
8.69749e-01	6.68149e-03
9.32603e-01	6.04340e-03
1.00000e+00	5.31712e-03
1.07227e+00	4.74661e-03
1.14976e+00	3.67291e-03
1.23285e+00	2.92796e-03
1.32194e+00	2.36689e-03
1.41747e+00	1.68346e-03
1.51991e+00	1.41040e-03
1.62975e+00	1.34075e-03
1.74753e+00	1.11554e-03
1.87382e+00	8.04293e-04
2.00923e+00	8.84262e-04
2.15443e+00	9.08450e-04
2.31013e+00	9.03835e-04
2.47708e+00	7.43200e-04
2.65609e+00	6.10786e-04
2.84804e+00	4.25378e-04
3.05386e+00	3.36523e-04
3.27455e+00	3.04934e-04
3.51119e+00	2.04960e-04
3.76494e+00	1.76183e-04
4.03702e+00	1.51485e-04
4.32876e+00	1.31561e-04
4.64159e+00	1.10598e-04
4.97702e+00	9.95944e-05
5.33670e+00	8.95993e-05
5.72237e+00	7.92884e-05
6.13591e+00	7.27757e-05
6.57933e+00	6.76382e-05
7.05480e+00	6.20147e-05
7.56463e+00	6.33892e-05
8.11131e+00	5.93774e-05
8.69749e+00	5.02546e-05
9.32603e+00	4.16857e-05
1.00000e+01	3.19426e-05
