FILE:	201206191054.COTT.EHE.psa
DATE:	2012-06-19 10:53
STA:	COTT
STLA:	-35.32
STLO:	148.92
SR:	100 Hz
EQLA:	-38.279
EQLO:	146.269
EQDEP:	17.24 km
EQMAG:	5.0
RHYP:	405.3 km
PGA:	2.643 mm/s/s
PGV:	0.264 mm/s

5% Damped Pseudo Response Spectral Acceleration (PSA) claculated
using time histories filtered using a 4th order Butterworth
bandpass between 0.2-50.0 Hz

Record Processed: 2016-01-07 22:29

-----------------------------------------------------------------
Period (s)	PSA (m/s/s)
-----------------------------------------------------------------
2.00923e-02	2.72270e-03
2.15443e-02	2.73356e-03
2.31013e-02	2.82791e-03
2.47708e-02	2.96020e-03
2.65609e-02	3.10205e-03
2.84804e-02	3.16761e-03
3.05386e-02	3.02953e-03
3.27455e-02	3.05788e-03
3.51119e-02	2.93613e-03
3.76494e-02	2.87269e-03
4.03702e-02	2.66737e-03
4.32876e-02	2.63864e-03
4.64159e-02	2.67758e-03
4.97702e-02	2.78464e-03
5.33670e-02	2.75001e-03
5.72237e-02	2.94771e-03
6.13591e-02	3.26159e-03
6.57933e-02	3.41191e-03
7.05480e-02	3.50013e-03
7.56463e-02	3.69755e-03
8.11131e-02	3.97211e-03
8.69749e-02	4.18107e-03
9.32603e-02	4.19524e-03
1.00000e-01	3.82757e-03
1.07227e-01	3.86167e-03
1.14976e-01	4.17253e-03
1.23285e-01	4.46181e-03
1.32194e-01	4.35526e-03
1.41747e-01	4.97534e-03
1.51991e-01	4.33227e-03
1.62975e-01	4.58905e-03
1.74753e-01	5.14444e-03
1.87382e-01	4.57380e-03
2.00923e-01	5.81899e-03
2.15443e-01	5.43860e-03
2.31013e-01	6.42963e-03
2.47708e-01	7.17468e-03
2.65609e-01	7.74074e-03
2.84804e-01	7.76149e-03
3.05386e-01	9.45456e-03
3.27455e-01	1.14497e-02
3.51119e-01	8.49470e-03
3.76494e-01	9.15018e-03
4.03702e-01	8.26241e-03
4.32876e-01	8.77359e-03
4.64159e-01	8.12458e-03
4.97702e-01	8.66679e-03
5.33670e-01	9.72366e-03
5.72237e-01	7.90996e-03
6.13591e-01	6.78229e-03
6.57933e-01	5.90318e-03
7.05480e-01	4.88102e-03
7.56463e-01	4.58035e-03
8.11131e-01	4.49651e-03
8.69749e-01	4.73527e-03
9.32603e-01	4.51410e-03
1.00000e+00	4.39993e-03
1.07227e+00	4.22833e-03
1.14976e+00	3.73844e-03
1.23285e+00	3.31589e-03
1.32194e+00	2.56992e-03
1.41747e+00	2.10043e-03
1.51991e+00	1.96876e-03
1.62975e+00	2.19634e-03
1.74753e+00	1.83688e-03
1.87382e+00	1.27016e-03
2.00923e+00	1.08330e-03
2.15443e+00	1.09276e-03
2.31013e+00	1.13334e-03
2.47708e+00	1.02851e-03
2.65609e+00	8.11470e-04
2.84804e+00	7.16809e-04
3.05386e+00	5.40457e-04
3.27455e+00	4.31597e-04
3.51119e+00	3.17391e-04
3.76494e+00	2.40502e-04
4.03702e+00	1.93652e-04
4.32876e+00	1.54129e-04
4.64159e+00	1.31930e-04
4.97702e+00	1.16796e-04
