FILE:	201206191053.ROWM.EHN.psa
DATE:	2012-06-19 10:53
STA:	ROWM
STLA:	-37.806
STLO:	144.292
SR:	100 Hz
EQLA:	-38.279
EQLO:	146.269
EQDEP:	17.24 km
EQMAG:	5.0
RHYP:	181.8 km
PGA:	22.383 mm/s/s
PGV:	1.357 mm/s

5% Damped Pseudo Response Spectral Acceleration (PSA) claculated
using time histories filtered using a 4th order Butterworth
bandpass between 0.2-50.0 Hz

Record Processed: 2016-01-14 22:33

-----------------------------------------------------------------
Period (s)	PSA (m/s/s)
-----------------------------------------------------------------
2.00923e-02	2.28534e-02
2.15443e-02	2.30326e-02
2.31013e-02	2.37450e-02
2.47708e-02	2.34036e-02
2.65609e-02	2.40983e-02
2.84804e-02	2.44109e-02
3.05386e-02	2.40482e-02
3.27455e-02	2.52521e-02
3.51119e-02	2.56979e-02
3.76494e-02	2.52771e-02
4.03702e-02	2.50501e-02
4.32876e-02	2.57302e-02
4.64159e-02	2.61087e-02
4.97702e-02	2.62322e-02
5.33670e-02	2.74312e-02
5.72237e-02	2.70388e-02
6.13591e-02	2.85481e-02
6.57933e-02	2.90308e-02
7.05480e-02	3.15572e-02
7.56463e-02	3.97684e-02
8.11131e-02	4.28576e-02
8.69749e-02	4.34674e-02
9.32603e-02	4.47103e-02
1.00000e-01	5.22010e-02
1.07227e-01	5.49948e-02
1.14976e-01	6.01250e-02
1.23285e-01	5.30077e-02
1.32194e-01	5.46427e-02
1.41747e-01	5.89501e-02
1.51991e-01	6.52869e-02
1.62975e-01	7.55783e-02
1.74753e-01	7.23114e-02
1.87382e-01	6.14040e-02
2.00923e-01	6.18582e-02
2.15443e-01	6.45060e-02
2.31013e-01	6.58996e-02
2.47708e-01	5.08887e-02
2.65609e-01	4.97350e-02
2.84804e-01	6.08918e-02
3.05386e-01	6.88273e-02
3.27455e-01	5.59225e-02
3.51119e-01	4.36428e-02
3.76494e-01	3.73311e-02
4.03702e-01	4.41650e-02
4.32876e-01	4.17527e-02
4.64159e-01	4.80138e-02
4.97702e-01	4.45273e-02
5.33670e-01	3.67727e-02
5.72237e-01	3.13397e-02
6.13591e-01	2.64847e-02
6.57933e-01	2.44524e-02
7.05480e-01	1.91363e-02
7.56463e-01	1.87775e-02
8.11131e-01	2.21305e-02
8.69749e-01	2.94470e-02
9.32603e-01	2.48566e-02
1.00000e+00	1.85840e-02
1.07227e+00	1.48065e-02
1.14976e+00	1.60181e-02
1.23285e+00	1.51315e-02
1.32194e+00	1.15981e-02
1.41747e+00	7.68895e-03
1.51991e+00	5.56608e-03
1.62975e+00	4.30551e-03
1.74753e+00	3.51775e-03
1.87382e+00	3.52127e-03
2.00923e+00	3.59660e-03
2.15443e+00	3.63745e-03
2.31013e+00	3.22289e-03
2.47708e+00	2.44218e-03
2.65609e+00	2.11359e-03
2.84804e+00	1.79047e-03
3.05386e+00	1.56042e-03
3.27455e+00	1.34135e-03
3.51119e+00	1.12679e-03
3.76494e+00	9.18903e-04
4.03702e+00	7.28650e-04
4.32876e+00	5.49369e-04
4.64159e+00	4.28331e-04
4.97702e+00	3.76621e-04
