FILE:	201207200912.CNB.BHN.psa
DATE:	2012-07-20 09:11
STA:	CNB
STLA:	-35.315
STLO:	149.3633
SR:	40 Hz
EQLA:	-38.229
EQLO:	146.218
EQDEP:	10.5 km
EQMAG:	4.4
RHYP:	428.3 km
AZIM:	41.9 degrees
PGA:	0.107 mm/s/s
PGV:	0.010 mm/s

5% Damped Pseudo Response Spectral Acceleration (PSA) claculated
using time histories filtered using a 4th order Butterworth
bandpass between 0.1-20.0 Hz

Record Processed: 2020-10-27 21:12

-----------------------------------------------------------------
Period (s)	PSA (m/s/s)
-----------------------------------------------------------------
5.33670e-02	1.47446e-04
5.72237e-02	1.73283e-04
6.13591e-02	1.65285e-04
6.57933e-02	1.86612e-04
7.05480e-02	1.98303e-04
7.56463e-02	1.94900e-04
8.11131e-02	2.28636e-04
8.69749e-02	2.32294e-04
9.32603e-02	2.30578e-04
1.00000e-01	2.70249e-04
1.07227e-01	2.76372e-04
1.14976e-01	2.63875e-04
1.23285e-01	2.55780e-04
1.32194e-01	2.25195e-04
1.41747e-01	2.49780e-04
1.51991e-01	2.42974e-04
1.62975e-01	2.17136e-04
1.74753e-01	2.33745e-04
1.87382e-01	2.34667e-04
2.00923e-01	2.15085e-04
2.15443e-01	2.35664e-04
2.31013e-01	3.24684e-04
2.47708e-01	2.74244e-04
2.65609e-01	3.30902e-04
2.84804e-01	3.73343e-04
3.05386e-01	4.19255e-04
3.27455e-01	3.67083e-04
3.51119e-01	3.64786e-04
3.76494e-01	3.67922e-04
4.03702e-01	3.95202e-04
4.32876e-01	3.72891e-04
4.64159e-01	3.11526e-04
4.97702e-01	3.06458e-04
5.33670e-01	2.37014e-04
5.72237e-01	2.18521e-04
6.13591e-01	2.09202e-04
6.57933e-01	1.51958e-04
7.05480e-01	1.14805e-04
7.56463e-01	1.13815e-04
8.11131e-01	1.03392e-04
8.69749e-01	8.95690e-05
9.32603e-01	8.46345e-05
1.00000e+00	8.04902e-05
1.07227e+00	9.79226e-05
1.14976e+00	1.00020e-04
1.23285e+00	8.51133e-05
1.32194e+00	6.63699e-05
1.41747e+00	6.13021e-05
1.51991e+00	5.94239e-05
1.62975e+00	6.81144e-05
1.74753e+00	6.36879e-05
1.87382e+00	5.78483e-05
2.00923e+00	5.83621e-05
2.15443e+00	4.98361e-05
2.31013e+00	4.53878e-05
2.47708e+00	4.64436e-05
2.65609e+00	4.67197e-05
2.84804e+00	3.97115e-05
3.05386e+00	3.24098e-05
3.27455e+00	3.14386e-05
3.51119e+00	3.54103e-05
3.76494e+00	2.92363e-05
4.03702e+00	2.15923e-05
4.32876e+00	1.92689e-05
4.64159e+00	1.95959e-05
4.97702e+00	1.58264e-05
5.33670e+00	1.35566e-05
5.72237e+00	1.30783e-05
6.13591e+00	1.15418e-05
6.57933e+00	1.00380e-05
7.05480e+00	1.11566e-05
7.56463e+00	8.03035e-06
8.11131e+00	5.07396e-06
8.69749e+00	4.01634e-06
9.32603e+00	2.79870e-06
1.00000e+01	2.25169e-06
