FILE:	201207200911.AUMTS.HHE.psa
DATE:	2012-07-20 09:01
STA:	AUMTS
STLA:	-35.3188
STLO:	148.9964
SR:	100 Hz
EQLA:	-38.231
EQLO:	146.215
EQDEP:	12.41 km
EQMAG:	4.5
RHYP:	407.7 km
AZIM:	38.4 degrees
PGA:	0.155 mm/s/s
PGV:	0.012 mm/s

5% Damped Pseudo Response Spectral Acceleration (PSA) claculated
using time histories filtered using a 4th order Butterworth
bandpass between 0.2-50.0 Hz

Record Processed: 2020-03-26 13:27

-----------------------------------------------------------------
Period (s)	PSA (m/s/s)
-----------------------------------------------------------------
2.00923e-02	1.84158e-04
2.15443e-02	1.78990e-04
2.31013e-02	1.71145e-04
2.47708e-02	1.71888e-04
2.65609e-02	1.69015e-04
2.84804e-02	1.61226e-04
3.05386e-02	1.54154e-04
3.27455e-02	1.60275e-04
3.51119e-02	1.64138e-04
3.76494e-02	1.65475e-04
4.03702e-02	1.66617e-04
4.32876e-02	1.63508e-04
4.64159e-02	1.64212e-04
4.97702e-02	1.67661e-04
5.33670e-02	1.82656e-04
5.72237e-02	2.01417e-04
6.13591e-02	2.22777e-04
6.57933e-02	2.02695e-04
7.05480e-02	2.12271e-04
7.56463e-02	2.14752e-04
8.11131e-02	2.35158e-04
8.69749e-02	2.26927e-04
9.32603e-02	2.67811e-04
1.00000e-01	2.63314e-04
1.07227e-01	2.65696e-04
1.14976e-01	2.80683e-04
1.23285e-01	3.67507e-04
1.32194e-01	3.48800e-04
1.41747e-01	3.35205e-04
1.51991e-01	2.91158e-04
1.62975e-01	3.48172e-04
1.74753e-01	3.12607e-04
1.87382e-01	3.67480e-04
2.00923e-01	5.03671e-04
2.15443e-01	4.57624e-04
2.31013e-01	4.50180e-04
2.47708e-01	4.24242e-04
2.65609e-01	4.58497e-04
2.84804e-01	4.26821e-04
3.05386e-01	4.80040e-04
3.27455e-01	4.81706e-04
3.51119e-01	4.46346e-04
3.76494e-01	4.60912e-04
4.03702e-01	4.29904e-04
4.32876e-01	4.30305e-04
4.64159e-01	4.67216e-04
4.97702e-01	3.67064e-04
5.33670e-01	3.18348e-04
5.72237e-01	3.07560e-04
6.13591e-01	2.28219e-04
6.57933e-01	2.12400e-04
7.05480e-01	2.14439e-04
7.56463e-01	1.85990e-04
8.11131e-01	1.54519e-04
8.69749e-01	1.34616e-04
9.32603e-01	1.33872e-04
1.00000e+00	1.23435e-04
1.07227e+00	8.81972e-05
1.14976e+00	7.50544e-05
1.23285e+00	8.73666e-05
1.32194e+00	8.52468e-05
1.41747e+00	7.78448e-05
1.51991e+00	8.59881e-05
1.62975e+00	8.59078e-05
1.74753e+00	7.24572e-05
1.87382e+00	6.82430e-05
2.00923e+00	6.91214e-05
2.15443e+00	5.46896e-05
2.31013e+00	4.01704e-05
2.47708e+00	3.84727e-05
2.65609e+00	3.69733e-05
2.84804e+00	3.80006e-05
3.05386e+00	4.51002e-05
3.27455e+00	6.31576e-05
3.51119e+00	5.66870e-05
3.76494e+00	3.68644e-05
4.03702e+00	2.87357e-05
4.32876e+00	2.95268e-05
4.64159e+00	3.33492e-05
4.97702e+00	3.30046e-05
