FILE:	201207200911.ROWM.EHN.psa
DATE:	2012-07-20 09:11
STA:	ROWM
STLA:	-37.806
STLO:	144.292
SR:	100 Hz
EQLA:	-38.229
EQLO:	146.218
EQDEP:	10.49 km
EQMAG:	4.2
RHYP:	175.5 km
PGA:	5.585 mm/s/s
PGV:	0.161 mm/s

5% Damped Pseudo Response Spectral Acceleration (PSA) claculated
using time histories filtered using a 4th order Butterworth
bandpass between 0.2-50.0 Hz

Record Processed: 2016-01-24 12:41

-----------------------------------------------------------------
Period (s)	PSA (m/s/s)
-----------------------------------------------------------------
2.00923e-02	5.66857e-03
2.15443e-02	5.99148e-03
2.31013e-02	6.01586e-03
2.47708e-02	5.75099e-03
2.65609e-02	5.66990e-03
2.84804e-02	6.38342e-03
3.05386e-02	6.63166e-03
3.27455e-02	6.43777e-03
3.51119e-02	6.69392e-03
3.76494e-02	5.98583e-03
4.03702e-02	5.97829e-03
4.32876e-02	6.53824e-03
4.64159e-02	6.82096e-03
4.97702e-02	8.92283e-03
5.33670e-02	9.42499e-03
5.72237e-02	7.95286e-03
6.13591e-02	1.00476e-02
6.57933e-02	8.80223e-03
7.05480e-02	9.73861e-03
7.56463e-02	8.99665e-03
8.11131e-02	1.03479e-02
8.69749e-02	1.13418e-02
9.32603e-02	1.24363e-02
1.00000e-01	1.38352e-02
1.07227e-01	1.83908e-02
1.14976e-01	2.23640e-02
1.23285e-01	1.90996e-02
1.32194e-01	1.60628e-02
1.41747e-01	1.35001e-02
1.51991e-01	1.44070e-02
1.62975e-01	1.28037e-02
1.74753e-01	1.24034e-02
1.87382e-01	1.25480e-02
2.00923e-01	1.18697e-02
2.15443e-01	1.27641e-02
2.31013e-01	1.26205e-02
2.47708e-01	1.18244e-02
2.65609e-01	9.42080e-03
2.84804e-01	9.79328e-03
3.05386e-01	1.04490e-02
3.27455e-01	7.77049e-03
3.51119e-01	6.12991e-03
3.76494e-01	5.36028e-03
4.03702e-01	4.69047e-03
4.32876e-01	4.55635e-03
4.64159e-01	5.68524e-03
4.97702e-01	6.24740e-03
5.33670e-01	6.03564e-03
5.72237e-01	4.18936e-03
6.13591e-01	2.65875e-03
6.57933e-01	2.21170e-03
7.05480e-01	1.95024e-03
7.56463e-01	1.87858e-03
8.11131e-01	1.32013e-03
8.69749e-01	1.27053e-03
9.32603e-01	1.14608e-03
1.00000e+00	1.38228e-03
1.07227e+00	1.27019e-03
1.14976e+00	1.24075e-03
1.23285e+00	1.15350e-03
1.32194e+00	9.10173e-04
1.41747e+00	8.85062e-04
1.51991e+00	6.54895e-04
1.62975e+00	5.87987e-04
1.74753e+00	4.42046e-04
1.87382e+00	3.31691e-04
2.00923e+00	2.66703e-04
2.15443e+00	2.29440e-04
2.31013e+00	2.20990e-04
2.47708e+00	2.09273e-04
2.65609e+00	2.13039e-04
2.84804e+00	1.70694e-04
3.05386e+00	1.59214e-04
3.27455e+00	1.43652e-04
3.51119e+00	1.23176e-04
3.76494e+00	1.09858e-04
4.03702e+00	9.61058e-05
4.32876e+00	8.12367e-05
4.64159e+00	6.12779e-05
4.97702e+00	5.35346e-05
