FILE:	201207200911.ROWM.EHE.psa
DATE:	2012-07-20 09:11
STA:	ROWM
STLA:	-37.806
STLO:	144.292
SR:	100 Hz
EQLA:	-38.229
EQLO:	146.218
EQDEP:	10.49 km
EQMAG:	4.2
RHYP:	175.5 km
PGA:	6.264 mm/s/s
PGV:	0.210 mm/s

5% Damped Pseudo Response Spectral Acceleration (PSA) claculated
using time histories filtered using a 4th order Butterworth
bandpass between 0.2-50.0 Hz

Record Processed: 2016-01-24 12:40

-----------------------------------------------------------------
Period (s)	PSA (m/s/s)
-----------------------------------------------------------------
2.00923e-02	6.20340e-03
2.15443e-02	6.36705e-03
2.31013e-02	6.99729e-03
2.47708e-02	7.22925e-03
2.65609e-02	7.57791e-03
2.84804e-02	8.91675e-03
3.05386e-02	9.35130e-03
3.27455e-02	9.72891e-03
3.51119e-02	9.42263e-03
3.76494e-02	9.09740e-03
4.03702e-02	9.11220e-03
4.32876e-02	9.63533e-03
4.64159e-02	1.05698e-02
4.97702e-02	1.09177e-02
5.33670e-02	1.28817e-02
5.72237e-02	1.32570e-02
6.13591e-02	1.28189e-02
6.57933e-02	1.36179e-02
7.05480e-02	1.32259e-02
7.56463e-02	1.48761e-02
8.11131e-02	1.82428e-02
8.69749e-02	1.74416e-02
9.32603e-02	1.71107e-02
1.00000e-01	1.96389e-02
1.07227e-01	1.89545e-02
1.14976e-01	2.51992e-02
1.23285e-01	2.00677e-02
1.32194e-01	1.72398e-02
1.41747e-01	1.36537e-02
1.51991e-01	1.81910e-02
1.62975e-01	1.81380e-02
1.74753e-01	2.10128e-02
1.87382e-01	2.15809e-02
2.00923e-01	1.92885e-02
2.15443e-01	2.05717e-02
2.31013e-01	1.72026e-02
2.47708e-01	1.49367e-02
2.65609e-01	1.47441e-02
2.84804e-01	1.07145e-02
3.05386e-01	1.06358e-02
3.27455e-01	1.44168e-02
3.51119e-01	1.15688e-02
3.76494e-01	1.03208e-02
4.03702e-01	8.92300e-03
4.32876e-01	6.15152e-03
4.64159e-01	6.53962e-03
4.97702e-01	6.39103e-03
5.33670e-01	5.01767e-03
5.72237e-01	4.37946e-03
6.13591e-01	4.27516e-03
6.57933e-01	3.56405e-03
7.05480e-01	3.69330e-03
7.56463e-01	2.94151e-03
8.11131e-01	2.37143e-03
8.69749e-01	2.15440e-03
9.32603e-01	2.01285e-03
1.00000e+00	1.81954e-03
1.07227e+00	1.73181e-03
1.14976e+00	1.23554e-03
1.23285e+00	9.10501e-04
1.32194e+00	6.96455e-04
1.41747e+00	7.93857e-04
1.51991e+00	7.19743e-04
1.62975e+00	5.00621e-04
1.74753e+00	4.39892e-04
1.87382e+00	4.09265e-04
2.00923e+00	3.41232e-04
2.15443e+00	2.94334e-04
2.31013e+00	2.14786e-04
2.47708e+00	2.00132e-04
2.65609e+00	1.72812e-04
2.84804e+00	1.39289e-04
3.05386e+00	1.06085e-04
3.27455e+00	1.09087e-04
3.51119e+00	8.75073e-05
3.76494e+00	7.63171e-05
4.03702e+00	7.80046e-05
4.32876e+00	6.75535e-05
4.64159e+00	6.00340e-05
4.97702e+00	5.04211e-05
