FILE:	201207200911.DROM.EHE.psa
DATE:	2012-07-20 09:11
STA:	DROM
STLA:	-38.348
STLO:	144.96
SR:	100 Hz
EQLA:	-38.229
EQLO:	146.218
EQDEP:	10.49 km
EQMAG:	4.2
RHYP:	111.1 km
PGA:	16.236 mm/s/s
PGV:	0.285 mm/s

5% Damped Pseudo Response Spectral Acceleration (PSA) claculated
using time histories filtered using a 4th order Butterworth
bandpass between 0.2-50.0 Hz

Record Processed: 2016-01-24 12:28

-----------------------------------------------------------------
Period (s)	PSA (m/s/s)
-----------------------------------------------------------------
2.00923e-02	1.71528e-02
2.15443e-02	1.80521e-02
2.31013e-02	1.91857e-02
2.47708e-02	1.90755e-02
2.65609e-02	1.86949e-02
2.84804e-02	1.84535e-02
3.05386e-02	1.88309e-02
3.27455e-02	2.16987e-02
3.51119e-02	2.41839e-02
3.76494e-02	2.55569e-02
4.03702e-02	2.67798e-02
4.32876e-02	2.58927e-02
4.64159e-02	3.22961e-02
4.97702e-02	3.56426e-02
5.33670e-02	5.04761e-02
5.72237e-02	5.47275e-02
6.13591e-02	7.72358e-02
6.57933e-02	9.75131e-02
7.05480e-02	9.81544e-02
7.56463e-02	7.50586e-02
8.11131e-02	6.69069e-02
8.69749e-02	5.31370e-02
9.32603e-02	4.17581e-02
1.00000e-01	2.87204e-02
1.07227e-01	2.75710e-02
1.14976e-01	3.31627e-02
1.23285e-01	3.16283e-02
1.32194e-01	2.77938e-02
1.41747e-01	3.22672e-02
1.51991e-01	2.52053e-02
1.62975e-01	3.63108e-02
1.74753e-01	3.28596e-02
1.87382e-01	3.23393e-02
2.00923e-01	1.94137e-02
2.15443e-01	2.05031e-02
2.31013e-01	1.76693e-02
2.47708e-01	1.55421e-02
2.65609e-01	1.45321e-02
2.84804e-01	1.30761e-02
3.05386e-01	1.81128e-02
3.27455e-01	1.60637e-02
3.51119e-01	1.57174e-02
3.76494e-01	1.05620e-02
4.03702e-01	1.00303e-02
4.32876e-01	8.16025e-03
4.64159e-01	9.32950e-03
4.97702e-01	7.04271e-03
5.33670e-01	4.50622e-03
5.72237e-01	4.12664e-03
6.13591e-01	4.45398e-03
6.57933e-01	3.19691e-03
7.05480e-01	2.68132e-03
7.56463e-01	2.24315e-03
8.11131e-01	2.35495e-03
8.69749e-01	1.90905e-03
9.32603e-01	1.65405e-03
1.00000e+00	2.05538e-03
1.07227e+00	1.91428e-03
1.14976e+00	1.55440e-03
1.23285e+00	1.42704e-03
1.32194e+00	1.22509e-03
1.41747e+00	8.93837e-04
1.51991e+00	6.98116e-04
1.62975e+00	5.41454e-04
1.74753e+00	4.30720e-04
1.87382e+00	3.79442e-04
2.00923e+00	3.07762e-04
2.15443e+00	2.58573e-04
2.31013e+00	2.18915e-04
2.47708e+00	1.80734e-04
2.65609e+00	1.53799e-04
2.84804e+00	1.19733e-04
3.05386e+00	1.04162e-04
3.27455e+00	1.07180e-04
3.51119e+00	1.32800e-04
3.76494e+00	1.32119e-04
4.03702e+00	1.09094e-04
4.32876e+00	9.72226e-05
4.64159e+00	9.09176e-05
4.97702e+00	7.54196e-05
