FILE:	201207200912.LEAH.EHN.psa
DATE:	2012-07-20 09:11
STA:	LEAH
STLA:	-42.303
STLO:	146.452
SR:	100 Hz
EQLA:	-38.229
EQLO:	146.218
EQDEP:	10.49 km
EQMAG:	4.2
RHYP:	453.6 km
PGA:	0.230 mm/s/s
PGV:	0.015 mm/s

5% Damped Pseudo Response Spectral Acceleration (PSA) claculated
using time histories filtered using a 4th order Butterworth
bandpass between 0.2-50.0 Hz

Record Processed: 2016-01-24 12:34

-----------------------------------------------------------------
Period (s)	PSA (m/s/s)
-----------------------------------------------------------------
2.00923e-02	2.36771e-04
2.15443e-02	2.37148e-04
2.31013e-02	2.34658e-04
2.47708e-02	2.29382e-04
2.65609e-02	2.31605e-04
2.84804e-02	2.42971e-04
3.05386e-02	2.43924e-04
3.27455e-02	2.36986e-04
3.51119e-02	2.36697e-04
3.76494e-02	2.35350e-04
4.03702e-02	2.43315e-04
4.32876e-02	2.40272e-04
4.64159e-02	2.38119e-04
4.97702e-02	2.45321e-04
5.33670e-02	2.41930e-04
5.72237e-02	2.45401e-04
6.13591e-02	2.41974e-04
6.57933e-02	2.45307e-04
7.05480e-02	2.55734e-04
7.56463e-02	2.71927e-04
8.11131e-02	2.65651e-04
8.69749e-02	2.52608e-04
9.32603e-02	2.78280e-04
1.00000e-01	3.02935e-04
1.07227e-01	3.48112e-04
1.14976e-01	3.92736e-04
1.23285e-01	4.19581e-04
1.32194e-01	4.15361e-04
1.41747e-01	4.31574e-04
1.51991e-01	4.01884e-04
1.62975e-01	4.18982e-04
1.74753e-01	4.67814e-04
1.87382e-01	5.76901e-04
2.00923e-01	6.52738e-04
2.15443e-01	6.78212e-04
2.31013e-01	7.84693e-04
2.47708e-01	7.51029e-04
2.65609e-01	7.35500e-04
2.84804e-01	6.69342e-04
3.05386e-01	5.49246e-04
3.27455e-01	5.16853e-04
3.51119e-01	6.29078e-04
3.76494e-01	7.34401e-04
4.03702e-01	7.83139e-04
4.32876e-01	5.99159e-04
4.64159e-01	6.89350e-04
4.97702e-01	8.78826e-04
5.33670e-01	7.53509e-04
5.72237e-01	5.81441e-04
6.13591e-01	5.24770e-04
6.57933e-01	3.71105e-04
7.05480e-01	3.27195e-04
7.56463e-01	2.81484e-04
8.11131e-01	2.18569e-04
8.69749e-01	2.24161e-04
9.32603e-01	1.91026e-04
1.00000e+00	1.67919e-04
1.07227e+00	1.61758e-04
1.14976e+00	1.36601e-04
1.23285e+00	1.24746e-04
1.32194e+00	1.37366e-04
1.41747e+00	1.18289e-04
1.51991e+00	1.01098e-04
1.62975e+00	7.64832e-05
1.74753e+00	5.47870e-05
1.87382e+00	4.84765e-05
2.00923e+00	3.56457e-05
2.15443e+00	3.78674e-05
2.31013e+00	3.46691e-05
2.47708e+00	3.32673e-05
2.65609e+00	2.27321e-05
2.84804e+00	1.42449e-05
3.05386e+00	1.34430e-05
3.27455e+00	1.32055e-05
3.51119e+00	1.15011e-05
3.76494e+00	1.00261e-05
4.03702e+00	9.13501e-06
4.32876e+00	1.28706e-05
4.64159e+00	1.26986e-05
4.97702e+00	8.39723e-06
