FILE:	201207200911.TOO.HHN.psa
DATE:	2012-07-20 09:11
STA:	TOO
STLA:	-37.5714
STLO:	145.4906
SR:	200 Hz
EQLA:	-38.229
EQLO:	146.218
EQDEP:	10.49 km
EQMAG:	4.2
RHYP:	97.6 km
PGA:	14.003 mm/s/s
PGV:	0.348 mm/s

5% Damped Pseudo Response Spectral Acceleration (PSA) claculated
using time histories filtered using a 4th order Butterworth
bandpass between 0.1-100.0 Hz

Record Processed: 2017-01-05 09:14

-----------------------------------------------------------------
Period (s)	PSA (m/s/s)
-----------------------------------------------------------------
1.00000e-02	1.86501e-02
1.07227e-02	1.86531e-02
1.14976e-02	1.99687e-02
1.23285e-02	2.10660e-02
1.32194e-02	2.24230e-02
1.41747e-02	2.36733e-02
1.51991e-02	2.50388e-02
1.62975e-02	3.08415e-02
1.74753e-02	3.08810e-02
1.87382e-02	2.61183e-02
2.00923e-02	3.34162e-02
2.15443e-02	2.92789e-02
2.31013e-02	3.29491e-02
2.47708e-02	2.93110e-02
2.65609e-02	3.09051e-02
2.84804e-02	2.73971e-02
3.05386e-02	2.64395e-02
3.27455e-02	2.55043e-02
3.51119e-02	2.84077e-02
3.76494e-02	3.66199e-02
4.03702e-02	4.38579e-02
4.32876e-02	5.63478e-02
4.64159e-02	5.95412e-02
4.97702e-02	4.74121e-02
5.33670e-02	4.42513e-02
5.72237e-02	4.41011e-02
6.13591e-02	4.53840e-02
6.57933e-02	4.21453e-02
7.05480e-02	4.43513e-02
7.56463e-02	4.36079e-02
8.11131e-02	3.77847e-02
8.69749e-02	3.35169e-02
9.32603e-02	4.15140e-02
1.00000e-01	3.36884e-02
1.07227e-01	3.26181e-02
1.14976e-01	3.08795e-02
1.23285e-01	2.51334e-02
1.32194e-01	1.96368e-02
1.41747e-01	2.31045e-02
1.51991e-01	2.39519e-02
1.62975e-01	2.47197e-02
1.74753e-01	2.48050e-02
1.87382e-01	1.62999e-02
2.00923e-01	1.48681e-02
2.15443e-01	2.01976e-02
2.31013e-01	2.21145e-02
2.47708e-01	2.03642e-02
2.65609e-01	1.66943e-02
2.84804e-01	1.06503e-02
3.05386e-01	1.07268e-02
3.27455e-01	9.21441e-03
3.51119e-01	6.20054e-03
3.76494e-01	5.16091e-03
4.03702e-01	4.51296e-03
4.32876e-01	4.36208e-03
4.64159e-01	3.76698e-03
4.97702e-01	3.76972e-03
5.33670e-01	4.00785e-03
5.72237e-01	4.58432e-03
6.13591e-01	4.06096e-03
6.57933e-01	3.67287e-03
7.05480e-01	3.18621e-03
7.56463e-01	3.40071e-03
8.11131e-01	2.38941e-03
8.69749e-01	1.65437e-03
9.32603e-01	1.59818e-03
1.00000e+00	1.39612e-03
1.07227e+00	1.13045e-03
1.14976e+00	7.64612e-04
1.23285e+00	7.25105e-04
1.32194e+00	7.65375e-04
1.41747e+00	6.54010e-04
1.51991e+00	5.76327e-04
1.62975e+00	6.60374e-04
1.74753e+00	7.17208e-04
1.87382e+00	5.76283e-04
2.00923e+00	4.57066e-04
2.15443e+00	3.95723e-04
2.31013e+00	3.09428e-04
2.47708e+00	2.83815e-04
2.65609e+00	2.90630e-04
2.84804e+00	2.97039e-04
3.05386e+00	3.15686e-04
3.27455e+00	2.73996e-04
3.51119e+00	2.41562e-04
3.76494e+00	2.11876e-04
4.03702e+00	2.02707e-04
4.32876e+00	1.67694e-04
4.64159e+00	1.44919e-04
4.97702e+00	1.34488e-04
5.33670e+00	1.04188e-04
5.72237e+00	8.39830e-05
6.13591e+00	6.11656e-05
6.57933e+00	4.30023e-05
7.05480e+00	3.45323e-05
7.56463e+00	3.29854e-05
8.11131e+00	2.93825e-05
8.69749e+00	2.69652e-05
9.32603e+00	2.39128e-05
1.00000e+01	1.97802e-05
