FILE:	201207200911.MLWM.EHE.psa
DATE:	2012-07-20 09:11
STA:	MLWM
STLA:	-37.136
STLO:	145.512
SR:	100 Hz
EQLA:	-38.229
EQLO:	146.218
EQDEP:	10.49 km
EQMAG:	4.2
RHYP:	136.9 km
PGA:	6.468 mm/s/s
PGV:	0.113 mm/s

5% Damped Pseudo Response Spectral Acceleration (PSA) claculated
using time histories filtered using a 4th order Butterworth
bandpass between 0.2-50.0 Hz

Record Processed: 2016-01-24 12:35

-----------------------------------------------------------------
Period (s)	PSA (m/s/s)
-----------------------------------------------------------------
2.00923e-02	8.49721e-03
2.15443e-02	8.38067e-03
2.31013e-02	8.90922e-03
2.47708e-02	1.04783e-02
2.65609e-02	9.26320e-03
2.84804e-02	1.09384e-02
3.05386e-02	1.13212e-02
3.27455e-02	1.09018e-02
3.51119e-02	1.22320e-02
3.76494e-02	1.12560e-02
4.03702e-02	1.20866e-02
4.32876e-02	1.13655e-02
4.64159e-02	1.43424e-02
4.97702e-02	1.35431e-02
5.33670e-02	1.33632e-02
5.72237e-02	1.23918e-02
6.13591e-02	1.56306e-02
6.57933e-02	1.48026e-02
7.05480e-02	1.61466e-02
7.56463e-02	1.73317e-02
8.11131e-02	1.94832e-02
8.69749e-02	1.62810e-02
9.32603e-02	1.60697e-02
1.00000e-01	1.64559e-02
1.07227e-01	1.48425e-02
1.14976e-01	1.30613e-02
1.23285e-01	1.37032e-02
1.32194e-01	1.23315e-02
1.41747e-01	1.53024e-02
1.51991e-01	1.29159e-02
1.62975e-01	1.26536e-02
1.74753e-01	1.10820e-02
1.87382e-01	1.24338e-02
2.00923e-01	1.11315e-02
2.15443e-01	8.33801e-03
2.31013e-01	6.94423e-03
2.47708e-01	6.65297e-03
2.65609e-01	8.28276e-03
2.84804e-01	7.02093e-03
3.05386e-01	5.53522e-03
3.27455e-01	5.27802e-03
3.51119e-01	3.29958e-03
3.76494e-01	2.81644e-03
4.03702e-01	2.09453e-03
4.32876e-01	2.24402e-03
4.64159e-01	2.10736e-03
4.97702e-01	1.93609e-03
5.33670e-01	2.03727e-03
5.72237e-01	1.66467e-03
6.13591e-01	1.79897e-03
6.57933e-01	1.58296e-03
7.05480e-01	1.16657e-03
7.56463e-01	1.04047e-03
8.11131e-01	1.13710e-03
8.69749e-01	7.65930e-04
9.32603e-01	6.38762e-04
1.00000e+00	5.88777e-04
1.07227e+00	4.29526e-04
1.14976e+00	2.84432e-04
1.23285e+00	2.40587e-04
1.32194e+00	2.17976e-04
1.41747e+00	2.15439e-04
1.51991e+00	2.05434e-04
1.62975e+00	1.74466e-04
1.74753e+00	1.67196e-04
1.87382e+00	2.34354e-04
2.00923e+00	2.32670e-04
2.15443e+00	1.92522e-04
2.31013e+00	1.64227e-04
2.47708e+00	1.49744e-04
2.65609e+00	1.33303e-04
2.84804e+00	1.44104e-04
3.05386e+00	1.26737e-04
3.27455e+00	1.27986e-04
3.51119e+00	1.39664e-04
3.76494e+00	1.16155e-04
4.03702e+00	1.07276e-04
4.32876e+00	9.32820e-05
4.64159e+00	6.74276e-05
4.97702e+00	5.30005e-05
